#scan	iMeasureCycle=1	iMux=0	time=0.154	N=482	LocalTime=31/10/2023 16:14:12
#VGate(V)	IGate(A)	time(s)	VDrain(V)	IDrain(A)	time(s)
-60	-1.01707E-09	0.31454	0.0499999	1.845E-11	0.31454
-59.5001	-8.5245E-10	0.491443	0.0500001	9.66E-12	0.491443
-59.0001	-7.6138E-10	0.667919	0.0500001	7.1E-12	0.667919
-58.5	-6.9965E-10	0.862394	0.0499999	5.66E-12	0.862394
-58.0001	-6.3199E-10	1.042314	0.05	5.42E-12	1.042314
-57.5	-5.9289E-10	1.218916	0.0500001	2.27E-12	1.218916
-57	-5.5899E-10	1.428758	0.0500001	3.59E-12	1.428758
-56.5001	-5.258E-10	1.605302	0.05	3.81E-12	1.605302
-56	-5.0685E-10	1.781863	0.0500001	7.86E-12	1.781863
-55.5	-4.6556E-10	1.958525	0.0499999	8.1E-13	1.958525
-55.0001	-4.4686E-10	2.135157	0.0499998	-1.6E-13	2.135157
-54.5	-4.2924E-10	2.311756	0.0499998	-7.4E-13	2.311756
-54.0001	-4.2462E-10	2.488633	0.0499998	3.55E-12	2.488633
-53.5001	-3.9723E-10	2.665107	0.0499999	1.11E-12	2.665107
-53	-3.705E-10	2.841561	0.05	-2.24E-12	2.841561
-52.5	-3.7021E-10	3.048578	0.0499998	1.04E-12	3.048578
-52.0001	-3.5146E-10	3.225162	0.05	-1.02E-12	3.225162
-51.5	-3.3599E-10	3.434502	0.05	-1.18E-12	3.434502
-51.0001	-3.3606E-10	3.61104	0.05	1.14E-12	3.61104
-50.5001	-3.2255E-10	3.787598	0.0499997	-1.82E-12	3.787598
-50	-3.1302E-10	3.96421	0.05	3.1E-13	3.96421
-49.5	-3.0021E-10	4.140906	0.0499999	6E-13	4.140906
-49.0001	-2.9215E-10	4.317419	0.0499999	1.84E-12	4.317419
-48.5001	-2.8184E-10	4.494264	0.0500001	-2.02E-12	4.494264
-48	-2.8218E-10	4.670786	0.05	9.1E-13	4.670786
-47.5	-2.6822E-10	4.847209	0.0499998	-8.8E-13	4.847209
-47.0001	-2.676E-10	5.030302	0.0499999	2E-12	5.030302
-46.5001	-2.5561E-10	5.206797	0.0499998	9.6E-13	5.206797
-46	-2.529E-10	5.412418	0.0500001	1.16E-12	5.412418
-45.5001	-2.3562E-10	5.588859	0.0499998	-1.76E-12	5.588859
-45	-2.3047E-10	5.765292	0.0499999	-3E-13	5.765292
-44.5001	-2.2496E-10	5.947023	0.05	-7.7E-13	5.947023
-44	-2.1943E-10	6.123585	0.0499999	9.3E-13	6.123585
-43.5001	-2.0119E-10	6.300154	0.0500002	-3.35E-12	6.300154
-43	-2.0137E-10	6.47785	0.0500001	-2.11E-12	6.47785
-42.5	-1.9983E-10	6.654203	0.0500002	-1.17E-12	6.654203
-42	-1.9428E-10	6.830608	0.0499998	-1.08E-12	6.830608
-41.5001	-1.8425E-10	7.009406	0.0500001	-5.7E-13	7.009406
-41	-1.8516E-10	7.186012	0.0500001	4.2E-13	7.186012
-40.5001	-1.8021E-10	7.380978	0.05	-7.3E-13	7.380978
-40	-1.6893E-10	7.557488	0.0499999	-1.56E-12	7.557488
-39.5	-1.5748E-10	7.733848	0.0500001	-3.76E-12	7.733848
-39	-1.619E-10	7.944493	0.0499997	-2.23E-12	7.944493
-38.5001	-1.6292E-10	8.120979	0.0499998	-4E-14	8.120979
-38	-1.5702E-10	8.297285	0.0499999	-3.8E-13	8.297285
-37.5001	-1.464E-10	8.473687	0.05	-1.36E-12	8.473687
-37	-1.3693E-10	8.650051	0.0500001	-2.57E-12	8.650051
-36.5	-1.3972E-10	8.826348	0.05	-3.9E-13	8.826348
-36.0001	-1.3591E-10	9.005309	0.0499999	-8.9E-13	9.005309
-35.5	-1.3184E-10	9.181697	0.0500001	-4.6E-13	9.181697
-35.0001	-1.2459E-10	9.357942	0.0499999	-6.6E-13	9.357942
-34.5001	-1.1639E-10	9.542994	0.0500002	-2.87E-12	9.542994
-34.0001	-1.154E-10	9.719272	0.0499998	-1.46E-12	9.719272
-33.5	-1.1439E-10	9.92961	0.0500003	-1.49E-12	9.92961
-33.0001	-1.1027E-10	10.105933	0.0499997	-1.17E-12	10.105933
-32.5	-9.954E-11	10.282186	0.0500002	-2.22E-12	10.282186
-32.0001	-9.821E-11	10.45928	0.0500001	-1.77E-12	10.45928
-31.5001	-9.411E-11	10.635499	0.05	-1.6E-12	10.635499
-31.0001	-8.999E-11	10.811841	0.0499998	-2.68E-12	10.811841
-30.5001	-8.463E-11	10.990583	0.0499998	-2.57E-12	10.990583
-30.0001	-8.3E-11	11.166931	0.0499998	-1.2E-12	11.166931
-29.5	-7.643E-11	11.343291	0.05	-2.34E-12	11.343291
-29	-7.565E-11	11.521733	0.0499999	-1.78E-12	11.521733
-28.5	-7.185E-11	11.697986	0.0499999	-1.65E-12	11.697986
-28.0001	-6.824E-11	11.894789	0.0499998	-3.02E-12	11.894789
-27.5	-7.198E-11	12.071179	0.0499998	7.9E-13	12.071179
-27.0001	-6.472E-11	12.247498	0.0499999	-4E-13	12.247498
-26.5	-5.523E-11	12.459087	0.0500001	-2.78E-12	12.459087
-26	-5.089E-11	12.635406	0.0499999	-2.89E-12	12.635406
-25.5001	-4.967E-11	12.811688	0.0499998	-2.11E-12	12.811688
-25.0001	-4.592E-11	12.98801	0.0500001	-2.45E-12	12.98801
-24.5	-4.416E-11	13.164313	0.0499999	-1.27E-12	13.164313
-24.0001	-3.988E-11	13.340509	0.0500001	-1.18E-12	13.340509
-23.5001	-4.007E-11	13.518107	0.05	4E-13	13.518107
-23.0001	-3.412E-11	13.694508	0.05	-1.56E-12	13.694508
-22.5001	-3.039E-11	13.870757	0.0499999	-1.89E-12	13.870757
-22.0001	-2.769E-11	14.056677	0.05	-8.8E-13	14.056677
-21.5	-2.378E-11	14.232941	0.0499999	-8.9E-13	14.232941
-21	-2.012E-11	14.438081	0.0499999	-2.28E-12	14.438081
-20.5001	-2.217E-11	14.614226	0.0499999	8.9E-13	14.614226
-20.0001	-1.419E-11	14.790329	0.0499997	-8.4E-13	14.790329
-19.5001	-1.304E-11	14.972062	0.0499998	1E-14	14.972062
-19.0001	-4.95E-12	15.148108	0.0499999	-1.18E-12	15.148108
-18.5001	-3.5E-13	15.324134	0.0499998	-5.2E-13	15.324134
-18.0001	5E-13	15.50024	0.0499998	1.09E-12	15.50024
-17.5	4.7E-13	15.676322	0.0500001	3.37E-12	15.676322
-17.0001	3.72E-12	15.852446	0.0499998	3.55E-12	15.852446
-16.5	9.58E-12	16.028532	0.0499999	3.03E-12	16.028532
-16	6.94E-12	16.204587	0.0499998	7.39E-12	16.204587
-15.5001	1.445E-11	16.380613	0.0500002	7.07E-12	16.380613
-15.0001	1.765E-11	16.563545	0.0499999	1.006E-11	16.563545
-14.5001	1.468E-11	16.73958	0.0500002	1.386E-11	16.73958
-14	1.887E-11	16.94628	0.05	1.558E-11	16.94628
-13.5001	1.747E-11	17.122355	0.0499999	2.057E-11	17.122355
-13.0001	2.525E-11	17.298436	0.0500002	2.094E-11	17.298436
-12.5	3.004E-11	17.476147	0.05	2.555E-11	17.476147
-12.0001	3.283E-11	17.652196	0.0499998	3.108E-11	17.652196
-11.5001	3.317E-11	17.828398	0.0500002	3.668E-11	17.828398
-11	3.679E-11	18.004507	0.0499998	4.231E-11	18.004507
-10.5001	4.023E-11	18.180617	0.0499999	5.069E-11	18.180617
-10	3.783E-11	18.356712	0.05	5.934E-11	18.356712
-9.5001	4.395E-11	18.534272	0.0499998	6.843E-11	18.534272
-9.0001	4.8E-11	18.710306	0.0499999	7.305E-11	18.710306
-8.5001	5.228E-11	18.886314	0.0499999	8.369E-11	18.886314
-8	5.322E-11	19.070603	0.0500001	9.207E-11	19.070603
-7.5001	5.119E-11	19.24663	0.0500001	1.064E-10	19.24663
-7.0001	5.617E-11	19.457823	0.0499998	1.1708E-10	19.457823
-6.5	5.517E-11	19.633973	0.0499997	1.4159E-10	19.633973
-6	6.135E-11	19.810012	0.0500001	1.7609E-10	19.810012
-5.5001	6.174E-11	19.986198	0.0500001	1.9374E-10	19.986198
-5	6.262E-11	20.162386	0.0499999	2.3554E-10	20.162386
-4.5001	6.652E-11	20.338421	0.05	2.6037E-10	20.338421
-4.0001	7.066E-11	20.514489	0.0499997	2.8368E-10	20.514489
-3.5001	7.119E-11	20.690547	0.05	2.9125E-10	20.690547
-3	7.622E-11	20.866596	0.0500003	3.1769E-10	20.866596
-2.5001	8.039E-11	21.042666	0.0500002	3.5488E-10	21.042666
-2.0001	8.381E-11	21.218795	0.0500002	3.7502E-10	21.218795
-1.5	8.353E-11	21.394798	0.0500003	4.1705E-10	21.394798
-1	7.604E-11	21.577801	0.0500001	4.5525E-10	21.577801
-0.5001	8.657E-11	21.753844	0.0500001	4.8946E-10	21.753844
-0.0001	8.326E-11	21.965105	0.0499999	5.1562E-10	21.965105
0.5	8.569E-11	22.141159	0.0499997	5.7148E-10	22.141159
0.9999	9.272E-11	22.317201	0.05	5.9555E-10	22.317201
1.5	9.516E-11	22.495384	0.05	6.2665E-10	22.495384
2	9.463E-11	22.671499	0.0499998	6.8781E-10	22.671499
2.4999	9.353E-11	22.847626	0.05	7.2801E-10	22.847626
3	9.884E-11	23.023746	0.0500002	7.9067E-10	23.023746
3.4999	1.0597E-10	23.199886	0.0499995	8.4349E-10	23.199886
4	1.004E-10	23.375945	0.0500008	9.6258E-10	23.375945
4.5	1.0717E-10	23.55204	0.0499999	9.7315E-10	23.55204
5	1.0728E-10	23.728057	0.05	1.0959E-09	23.728057
5.5	1.1147E-10	23.928868	0.0499994	1.16432E-09	23.928868
5.9999	1.1778E-10	24.105084	0.0500002	1.16716E-09	24.105084
6.4999	1.1454E-10	24.281235	0.0500005	1.28544E-09	24.281235
6.9999	1.1631E-10	24.497026	0.0500001	1.25393E-09	24.497026
7.5	1.1625E-10	24.673071	0.0500002	1.48392E-09	24.673071
7.9999	1.1986E-10	24.84915	0.0499997	1.59108E-09	24.84915
8.4999	1.2214E-10	25.02518	0.0500001	1.8376E-09	25.02518
9	1.3357E-10	25.201379	0.0500001	1.91753E-09	25.201379
9.4999	1.2531E-10	25.377425	0.0500003	2.08992E-09	25.377425
10	1.2935E-10	25.555161	0.0500006	2.3177E-09	25.555161
10.5	1.3198E-10	25.731238	0.0499998	2.39875E-09	25.731238
10.9999	1.3508E-10	25.907464	0.0500003	2.51599E-09	25.907464
11.4999	1.3729E-10	26.090556	0.0500001	2.70705E-09	26.090556
11.9999	1.4382E-10	26.266527	0.0500003	3.07937E-09	26.266527
12.5001	1.3357E-10	26.473704	0.0500001	3.22127E-09	26.473704
12.9999	1.4441E-10	26.649756	0.0500002	3.28454E-09	26.649756
13.5	1.4973E-10	26.825824	0.049999	3.40675E-09	26.825824
14	1.4641E-10	27.007713	0.0499998	3.73206E-09	27.007713
14.5	1.5476E-10	27.183792	0.05	4.25614E-09	27.183792
14.9999	1.5839E-10	27.359859	0.0499998	4.75267E-09	27.359859
15.4999	1.6114E-10	27.535996	0.0500004	4.80822E-09	27.535996
16	1.6653E-10	27.712244	0.0499999	5.04113E-09	27.712244
16.5	1.6795E-10	27.888369	0.0500012	5.53226E-09	27.888369
17	1.6914E-10	28.064572	0.049998	5.48463E-09	28.064572
17.5	1.6703E-10	28.240711	0.0499981	6.00005E-09	28.240711
18	1.6733E-10	28.416795	0.0499984	6.45448E-09	28.416795
18.5	1.7416E-10	28.599788	0.0499996	6.82016E-09	28.599788
18.9999	1.7735E-10	28.775755	0.0500009	6.86523E-09	28.775755
19.4999	1.7491E-10	28.987232	0.0500007	7.45446E-09	28.987232
19.9999	1.7996E-10	29.163307	0.0499995	7.78486E-09	29.163307
20.4999	1.7938E-10	29.339403	0.0500008	7.86043E-09	29.339403
20.9999	1.8335E-10	29.489761	0.0500012	8.44758E-09	29.489761
21.4999	1.8906E-10	29.638575	0.0500001	9.2507E-09	29.638575
22	1.9991E-10	29.808857	0.0499996	9.568E-09	29.808857
22.5	1.9249E-10	29.9915	0.0499997	9.925E-09	29.9915
23	1.9979E-10	30.141459	0.0500018	1.08985E-08	30.141459
23.4999	2.0135E-10	30.291449	0.0500011	1.11481E-08	30.291449
24	2.042E-10	30.476307	0.0499992	1.17529E-08	30.476307
24.4999	2.0679E-10	30.626363	0.0499988	1.24521E-08	30.626363
25	2.1629E-10	30.776296	0.0500011	1.3467E-08	30.776296
25.5	2.0913E-10	30.950722	0.0499991	1.4431E-08	30.950722
25.9999	2.19E-10	31.100876	0.0499989	1.49842E-08	31.100876
26.5	2.1656E-10	31.250891	0.0499985	1.56106E-08	31.250891
27	2.3158E-10	31.400871	0.0499998	1.63015E-08	31.400871
27.5	2.3097E-10	31.551035	0.0500008	1.70725E-08	31.551035
27.9999	2.2721E-10	31.701084	0.0500047	1.79901E-08	31.701084
28.5	2.3209E-10	31.851202	0.0499988	1.87451E-08	31.851202
28.9999	2.2775E-10	32.001189	0.049999	1.96203E-08	32.001189
29.5	2.3872E-10	32.151207	0.0499963	2.09904E-08	32.151207
30	2.4031E-10	32.301304	0.0499984	2.18784E-08	32.301304
30.4999	2.4169E-10	32.487688	0.0500044	2.28718E-08	32.487688
30.9999	2.4601E-10	32.637835	0.0499998	2.39502E-08	32.637835
31.5	2.4486E-10	32.787826	0.050001	2.49254E-08	32.787826
32	2.4687E-10	32.971611	0.0500016	2.62323E-08	32.971611
32.5	2.5663E-10	33.121711	0.0499985	2.71798E-08	33.121711
32.9999	2.5716E-10	33.271733	0.0500028	2.89405E-08	33.271733
33.5	2.591E-10	33.421801	0.0500036	3.0437E-08	33.421801
33.9999	2.6631E-10	33.587518	0.0500065	3.2113E-08	33.587518
34.4999	2.7326E-10	33.737479	0.0500009	3.40789E-08	33.737479
35	2.7256E-10	33.887511	0.0499978	3.45867E-08	33.887511
35.5	2.8009E-10	34.037581	0.0499998	3.68592E-08	34.037581
36	2.8636E-10	34.188848	0.0499979	3.86117E-08	34.188848
36.4999	2.9199E-10	34.338874	0.0500028	3.977E-08	34.338874
36.9999	2.8722E-10	34.504148	0.0499982	4.16148E-08	34.504148
37.4999	2.9067E-10	34.654322	0.050001	4.39414E-08	34.654322
38	3.0309E-10	34.804471	0.0500034	4.53235E-08	34.804471
38.5	2.9274E-10	34.993226	0.0500014	4.72593E-08	34.993226
39	3.025E-10	35.143417	0.0499928	5.03796E-08	35.143417
39.4999	3.043E-10	35.29347	0.0500011	5.15854E-08	35.29347
39.9999	2.9901E-10	35.478435	0.05	5.44332E-08	35.478435
40.5001	3.077E-10	35.628631	0.0500005	5.70489E-08	35.628631
40.9999	3.098E-10	35.778749	0.0500014	5.96556E-08	35.778749
41.4999	3.0931E-10	35.929008	0.0499922	6.19634E-08	35.929008
42	3.145E-10	36.094354	0.0500014	6.3967E-08	36.094354
42.5	3.2156E-10	36.244541	0.0500046	6.73036E-08	36.244541
43	3.2587E-10	36.394777	0.050006	7.03691E-08	36.394777
43.4999	3.2287E-10	36.544966	0.0499981	7.35072E-08	36.544966
43.9999	3.2768E-10	36.695227	0.0499921	7.58715E-08	36.695227
44.5	3.2203E-10	36.845514	0.050001	7.98289E-08	36.845514
44.9999	3.2505E-10	37.010837	0.0499987	8.2795E-08	37.010837
45.5	3.3935E-10	37.161098	0.0500003	8.63083E-08	37.161098
46	3.4144E-10	37.311309	0.0499964	8.84415E-08	37.311309
46.4999	3.2631E-10	37.499531	0.049998	9.34107E-08	37.499531
47	3.3856E-10	37.649769	0.0500002	9.67916E-08	37.649769
47.4999	3.3986E-10	37.800083	0.0499955	9.99155E-08	37.800083
47.9999	3.3569E-10	37.990478	0.05	1.05127E-07	37.990478
48.4999	3.4636E-10	38.140733	0.05	1.08505E-07	38.140733
48.9999	3.4958E-10	38.290939	0.0499999	1.13098E-07	38.290939
49.4999	3.4876E-10	38.441232	0.05	1.16813E-07	38.441232
49.9999	3.5453E-10	38.600758	0.0499999	1.21656E-07	38.600758
50.4999	3.5443E-10	38.750957	0.0500001	1.26099E-07	38.750957
51	3.616E-10	38.90116	0.0499999	1.30058E-07	38.90116
51.4999	3.6245E-10	39.051415	0.0499999	1.35461E-07	39.051415
51.9999	3.6812E-10	39.202697	0.0500002	1.39872E-07	39.202697
52.4999	3.7003E-10	39.352996	0.0499998	1.45378E-07	39.352996
53	3.6223E-10	39.517207	0.0499998	1.49645E-07	39.517207
53.4999	3.729E-10	39.66768	0.0499999	1.56794E-07	39.66768
54	3.7869E-10	39.818102	0.0499999	1.60487E-07	39.818102
54.5	3.6921E-10	40.00595	0.0500001	1.65839E-07	40.00595
54.9999	3.7239E-10	40.15628	0.05	1.71896E-07	40.15628
55.4999	3.8217E-10	40.306634	0.0500001	1.78036E-07	40.306634
55.9999	3.7836E-10	40.490992	0.0499999	1.85413E-07	40.490992
56.5	3.7971E-10	40.641265	0.0500004	1.90945E-07	40.641265
57	3.8658E-10	40.791635	0.0499998	1.94531E-07	40.791635
57.4999	3.8696E-10	40.941977	0.05	2.01751E-07	40.941977
57.9999	3.914E-10	41.106853	0.0499998	2.063E-07	41.106853
58.5	3.9194E-10	41.257164	0.0500001	2.14313E-07	41.257164
59	4.001E-10	41.407447	0.0499999	2.22833E-07	41.407447
59.4999	3.9767E-10	41.557737	0.05	2.30437E-07	41.557737
60	4.0483E-10	41.708995	0.05	2.38387E-07	41.708995
60	3.9295E-10	41.831357	0.0500001	2.36124E-07	41.831357
59.4999	3.6707E-10	42.022273	0.05	2.2639E-07	42.022273
59	3.4962E-10	42.172681	0.0500002	2.18692E-07	42.172681
58.5	3.3372E-10	42.323001	0.05	2.08483E-07	42.323001
58	3.3262E-10	42.512403	0.05	2.02274E-07	42.512403
57.4999	3.1539E-10	42.662907	0.0499999	1.94069E-07	42.662907
57	3.0383E-10	42.813189	0.05	1.83989E-07	42.813189
56.4999	3.0189E-10	42.992904	0.05	1.77347E-07	42.992904
55.9999	2.9303E-10	43.143187	0.0500001	1.71568E-07	43.143187
55.4999	2.7443E-10	43.29343	0.0499999	1.66211E-07	43.29343
55	2.7886E-10	43.44376	0.05	1.59588E-07	43.44376
54.5	2.606E-10	43.613063	0.05	1.50908E-07	43.613063
53.9999	2.5685E-10	43.763338	0.05	1.45232E-07	43.763338
53.4999	2.4768E-10	43.913567	0.05	1.3852E-07	43.913567
52.9999	2.4469E-10	44.063842	0.0500001	1.33337E-07	44.063842
52.4999	2.3671E-10	44.214234	0.0500003	1.27016E-07	44.214234
51.9999	2.2596E-10	44.364655	0.05	1.21172E-07	44.364655
51.4999	2.2382E-10	44.525724	0.0499999	1.1616E-07	44.525724
51	2.1961E-10	44.676046	0.05	1.10834E-07	44.676046
50.5	2.1605E-10	44.82627	0.05	1.06238E-07	44.82627
49.9999	2.0709E-10	45.000358	0.05	1.02184E-07	45.000358
49.4999	2.0285E-10	45.150637	0.0500001	9.8336E-08	45.150637
49	1.8825E-10	45.300912	0.0499999	9.4172E-08	45.300912
48.5	1.9014E-10	45.451145	0.05	8.8651E-08	45.451145
48	1.808E-10	45.636193	0.0499895	8.31935E-08	45.636193
47.5	1.7591E-10	45.786491	0.0499948	7.89065E-08	45.786491
46.9999	1.6597E-10	45.936655	0.0500048	7.62944E-08	45.936655
46.4999	1.593E-10	46.087079	0.049997	7.2918E-08	46.087079
45.9999	1.5592E-10	46.237414	0.0499994	6.91265E-08	46.237414
45.4999	1.3126E-10	46.387634	0.0499979	6.53104E-08	46.387634
45	1.2625E-10	46.537978	0.050001	6.23214E-08	46.537978
44.4999	1.2398E-10	46.688188	0.0499962	5.87937E-08	46.688188
44	1.1956E-10	46.838392	0.0500027	5.60049E-08	46.838392
43.5	1.1917E-10	47.025081	0.0500015	5.36977E-08	47.025081
42.9999	1.1433E-10	47.175296	0.0499964	4.97424E-08	47.175296
42.5	1.0425E-10	47.32539	0.0499989	4.78482E-08	47.32539
41.9999	1.0475E-10	47.509592	0.0499987	4.4217E-08	47.509592
41.5	9.939E-11	47.659818	0.049998	4.27024E-08	47.659818
40.9999	8.965E-11	47.810062	0.050001	3.99327E-08	47.810062
40.5001	9.393E-11	47.960283	0.0500015	3.82533E-08	47.960283
40	7.968E-11	48.124121	0.0499998	3.59842E-08	48.124121
39.4999	7.874E-11	48.274305	0.050003	3.41606E-08	48.274305
39	7.554E-11	48.4244	0.0500008	3.14674E-08	48.4244
38.4999	6.392E-11	48.574394	0.0500019	2.97619E-08	48.574394
37.9999	6.273E-11	48.726277	0.0500007	2.75959E-08	48.726277
37.4999	6.357E-11	48.876322	0.0500001	2.63372E-08	48.876322
37	6.461E-11	49.04129	0.0500002	2.45733E-08	49.04129
36.5	5.429E-11	49.191346	0.0499995	2.28539E-08	49.191346
35.9999	5.889E-11	49.341446	0.0499993	2.17674E-08	49.341446
35.4999	5.912E-11	49.530202	0.0500007	2.00565E-08	49.530202
35	5.355E-11	49.6803	0.050001	1.88021E-08	49.6803
34.4999	5.585E-11	49.830406	0.0499988	1.75579E-08	49.830406
34	5.498E-11	50.015157	0.0499995	1.65996E-08	50.015157
33.4999	4.926E-11	50.165269	0.050001	1.52821E-08	50.165269
32.9999	5.412E-11	50.315328	0.0499985	1.38819E-08	50.315328
32.5	4.691E-11	50.465418	0.0500006	1.32604E-08	50.465418
31.9999	4.762E-11	50.63031	0.0499993	1.19857E-08	50.63031
31.5	4.57E-11	50.78024	0.0499995	1.12158E-08	50.78024
31	4.258E-11	50.930222	0.0500001	1.04418E-08	50.930222
30.5	3.173E-11	51.080248	0.0500008	9.5765E-09	51.080248
30	3.047E-11	51.247314	0.0499992	8.74953E-09	51.247314
29.5	2.985E-11	51.423506	0.0499992	7.83347E-09	51.423506
28.9999	3.084E-11	51.600081	0.0499997	7.32458E-09	51.600081
28.5	2.83E-11	51.776311	0.0499999	6.40345E-09	51.776311
27.9999	3.158E-11	51.952698	0.0500004	5.84034E-09	51.952698
27.5	2.435E-11	52.131719	0.0499999	5.40514E-09	52.131719
26.9999	1.821E-11	52.308033	0.0500003	4.85843E-09	52.308033
26.5	1.988E-11	52.505024	0.05	4.18654E-09	52.505024
25.9999	1.564E-11	52.681402	0.0499999	3.69389E-09	52.681402
25.4999	1.279E-11	52.857841	0.0500002	3.22303E-09	52.857841
24.9999	1.708E-11	53.074225	0.0499999	2.88363E-09	53.074225
24.4999	8.11E-12	53.250841	0.05	2.43263E-09	53.250841
24	5.54E-12	53.427017	0.0500001	2.08247E-09	53.427017
23.4999	1.37E-12	53.603324	0.0499999	1.72429E-09	53.603324
22.9999	-1.1E-12	53.77953	0.0499998	1.40493E-09	53.77953
22.5	-4.53E-12	53.955789	0.0500001	1.12207E-09	53.955789
21.9999	-7.49E-12	54.13232	0.0499998	9.0118E-10	54.13232
21.5	-9.2E-12	54.30874	0.0499999	6.9094E-10	54.30874
20.9999	-1.232E-11	54.484745	0.0499997	5.3318E-10	54.484745
20.5	-1.675E-11	54.667554	0.0499998	3.9447E-10	54.667554
20	-1.03E-11	54.843607	0.0499998	2.8074E-10	54.843607
19.4999	-1.343E-11	55.055376	0.05	1.9318E-10	55.055376
18.9999	-2.079E-11	55.231493	0.0499999	1.3575E-10	55.231493
18.4999	-2.312E-11	55.407629	0.05	8.996E-11	55.407629
18	-2.351E-11	55.585119	0.05	5.525E-11	55.585119
17.4999	-2.091E-11	55.761182	0.0499998	3.322E-11	55.761182
16.9999	-2.831E-11	55.937394	0.0499998	2.268E-11	55.937394
16.4999	-2.9E-11	56.113436	0.05	1.452E-11	56.113436
15.9999	-3.309E-11	56.28956	0.0499998	9.54E-12	56.28956
15.5	-3.396E-11	56.465674	0.05	5.37E-12	56.465674
15	-3.637E-11	56.641957	0.0500001	3.56E-12	56.641957
14.4999	-4.516E-11	56.817987	0.0499998	4.95E-12	56.817987
14	-3.527E-11	57.017724	0.0499997	3E-14	57.017724
13.5	-4.084E-11	57.193818	0.0500001	3.9E-13	57.193818
13	-4.432E-11	57.369903	0.0499999	8.4E-13	57.369903
12.5	-4.237E-11	57.5875	0.0500001	1.6E-13	57.5875
11.9999	-5.126E-11	57.763701	0.0499998	2.31E-12	57.763701
11.5	-5.161E-11	57.939901	0.0500001	7.5E-13	57.939901
10.9999	-4.821E-11	58.115964	0.0499999	-1.99E-12	58.115964
10.4999	-5.885E-11	58.292083	0.0499999	1.6E-12	58.292083
10	-5.667E-11	58.468132	0.0499999	-3.2E-13	58.468132
9.5	-6.115E-11	58.645174	0.05	1.45E-12	58.645174
9	-6.021E-11	58.821269	0.05	-3.1E-13	58.821269
8.5	-6.305E-11	58.997401	0.0499998	-4E-14	58.997401
8	-6.225E-11	59.181175	0.05	-9.3E-13	59.181175
7.4999	-6.997E-11	59.35728	0.0499998	9.6E-13	59.35728
7	-6.565E-11	59.563928	0.05	7E-14	59.563928
6.5	-6.941E-11	59.740093	0.0500002	-1.7E-13	59.740093
6	-7.24E-11	59.916273	0.0499998	-4.7E-13	59.916273
5.5	-7.919E-11	60.093863	0.0499998	1.95E-12	60.093863
5	-7.74E-11	60.270194	0.0499998	2.1E-13	60.270194
4.4999	-8.283E-11	60.446316	0.0500001	1.89E-12	60.446316
4	-8.452E-11	60.622409	0.0499999	1.75E-12	60.622409
3.5	-8.695E-11	60.798512	0.0499997	1.48E-12	60.798512
3	-8.749E-11	60.974556	0.05	6.5E-13	60.974556
2.4999	-9.232E-11	61.152133	0.05	1.39E-12	61.152133
2	-8.715E-11	61.32813	0.05	-9.4E-13	61.32813
1.4999	-9.196E-11	61.504153	0.05	3E-14	61.504153
1	-9.615E-11	61.687289	0.0500001	1.28E-12	61.687289
0.5	-9.435E-11	61.863303	0.0499999	-3.3E-13	61.863303
0	-1.0136E-10	62.075222	0.05	1.74E-12	62.075222
-0.5	-1.0415E-10	62.25127	0.0499998	1.72E-12	62.25127
-1.0001	-1.0171E-10	62.427359	0.0500001	-8.2E-13	62.427359
-1.5001	-1.044E-10	62.605357	0.0500001	4E-13	62.605357
-2	-1.0958E-10	62.781557	0.0499999	1.13E-12	62.781557
-2.5	-1.0671E-10	62.957711	0.0499999	-1.53E-12	62.957711
-3.0001	-1.2281E-10	63.133988	0.05	3.62E-12	63.133988
-3.5001	-1.1828E-10	63.310141	0.0500001	1.19E-12	63.310141
-4	-1.1994E-10	63.486247	0.0499999	1.64E-12	63.486247
-4.5001	-1.189E-10	63.662401	0.0500001	3.7E-13	63.662401
-5.0001	-1.2251E-10	63.838489	0.05	3.7E-13	63.838489
-5.5001	-1.271E-10	64.037492	0.0500001	1.97E-12	64.037492
-6.0001	-1.3123E-10	64.213609	0.0499999	2.97E-12	64.213609
-6.5001	-1.2642E-10	64.389691	0.05	-3.1E-13	64.389691
-7.0001	-1.2937E-10	64.616109	0.0499999	4.2E-13	64.616109
-7.5001	-1.3953E-10	64.792344	0.05	2.34E-12	64.792344
-8.0001	-1.436E-10	64.968457	0.0499998	2.61E-12	64.968457
-8.5	-1.4116E-10	65.144786	0.0500003	1.98E-12	65.144786
-9	-1.4206E-10	65.320861	0.05	8.8E-13	65.320861
-9.5001	-1.4453E-10	65.496939	0.05	1.65E-12	65.496939
-10	-1.4737E-10	65.699633	0.0499999	1.31E-12	65.699633
-10.5	-1.4831E-10	65.875669	0.05	-1.21E-12	65.875669
-11	-1.5123E-10	66.082869	0.0500001	5.1E-13	66.082869
-11.5001	-1.5818E-10	66.259048	0.05	2.04E-12	66.259048
-12	-1.572E-10	66.435181	0.05	-7.9E-13	66.435181
-12.5	-1.6113E-10	66.612065	0.05	1.54E-12	66.612065
-13.0001	-1.6223E-10	66.788428	0.0500001	1.29E-12	66.788428
-13.5	-1.6055E-10	66.96452	0.0500001	-8.5E-13	66.96452
-14.0001	-1.6884E-10	67.140647	0.0499999	1.08E-12	67.140647
-14.4999	-1.7011E-10	67.316823	0.05	-6E-13	67.316823
-15.0001	-1.7498E-10	67.492944	0.0499999	6E-13	67.492944
-15.5001	-1.753E-10	67.670568	0.0499999	1.14E-12	67.670568
-16.0001	-1.7894E-10	67.846593	0.0500001	1.71E-12	67.846593
-16.5	-1.8112E-10	68.022614	0.0500002	1.2E-12	68.022614
-17	-1.7971E-10	68.206751	0.0500001	-3.2E-13	68.206751
-17.5	-1.9197E-10	68.382814	0.0499999	2.12E-12	68.382814
-18.0001	-1.9261E-10	68.593739	0.05	2.66E-12	68.593739
-18.5001	-1.9645E-10	68.76984	0.05	3.57E-12	68.76984
-19.0001	-1.9544E-10	68.946003	0.0499999	2.71E-12	68.946003
-19.5001	-1.9651E-10	69.122119	0.0500001	1.02E-12	69.122119
-20	-1.9863E-10	69.298209	0.0500001	1.78E-12	69.298209
-20.5001	-2.0115E-10	69.474267	0.0499997	-7E-14	69.474267
-21	-2.0652E-10	69.650776	0.0499999	5.6E-13	69.650776
-21.5001	-2.1209E-10	69.826994	0.0499999	1.45E-12	69.826994
-22	-2.1007E-10	70.003139	0.0500001	1.24E-12	70.003139
-22.5	-2.0844E-10	70.180664	0.0499999	1.04E-12	70.180664
-23	-2.1111E-10	70.357045	0.05	-7.9E-13	70.357045
-23.5001	-2.1369E-10	70.556042	0.0500001	9.2E-13	70.556042
-24	-2.2132E-10	70.732377	0.05	1.42E-12	70.732377
-24.5	-2.2516E-10	70.908608	0.0499997	1.14E-12	70.908608
-25.0001	-2.2949E-10	71.126132	0.0500002	3.32E-12	71.126132
-25.5	-2.2456E-10	71.302399	0.05	7.5E-13	71.302399
-26	-2.256E-10	71.478784	0.0500001	8.3E-13	71.478784
-26.5	-2.2675E-10	71.65518	0.05	1.12E-12	71.65518
-27.0001	-2.3489E-10	71.831433	0.0500002	2.5E-12	71.831433
-27.5	-2.366E-10	72.007657	0.0499999	5.4E-13	72.007657
-28.0001	-2.4763E-10	72.185259	0.05	4.35E-12	72.185259
-28.5	-2.4885E-10	72.361593	0.0499998	4.04E-12	72.361593
-29	-2.4004E-10	72.562608	0.0500001	1.24E-12	72.562608
-29.5001	-2.4171E-10	72.738956	0.0499999	8.9E-13	72.738956
-30	-2.4649E-10	72.915212	0.0499997	-4.5E-13	72.915212
-30.5001	-2.5269E-10	73.132531	0.0499998	1.31E-12	73.132531
-31.0001	-2.5128E-10	73.309035	0.0499999	-7.2E-13	73.309035
-31.5	-2.5795E-10	73.485493	0.05	1.07E-12	73.485493
-32.0001	-2.6033E-10	73.662081	0.05	2.66E-12	73.662081
-32.5	-2.5666E-10	73.838343	0.0499999	1.3E-13	73.838343
-33.0001	-2.6302E-10	74.01461	0.0499999	8.9E-13	74.01461
-33.5001	-2.7304E-10	74.191971	0.05	1.83E-12	74.191971
-34.0001	-2.7723E-10	74.368332	0.0500001	2.38E-12	74.368332
-34.5	-2.7051E-10	74.544622	0.0500002	8.1E-13	74.544622
-35.0001	-2.7907E-10	74.728395	0.05	3.43E-12	74.728395
-35.5	-2.7784E-10	74.904792	0.0500002	2.2E-12	74.904792
-36	-2.8004E-10	75.111207	0.05	2.77E-12	75.111207
-36.5	-2.8186E-10	75.287594	0.0499997	2.69E-12	75.287594
-37.0001	-2.7989E-10	75.463985	0.05	7.5E-13	75.463985
-37.5001	-2.8228E-10	75.645651	0.0500001	-3.4E-13	75.645651
-38	-2.8439E-10	75.822024	0.0500002	5.2E-13	75.822024
-38.5	-2.9046E-10	75.99849	0.0499998	5.4E-13	75.99849
-39	-2.9131E-10	76.177259	0.0499999	-5.7E-13	76.177259
-39.5001	-3.0026E-10	76.353722	0.05	2.95E-12	76.353722
-40.0001	-2.9669E-10	76.530166	0.0500001	8.7E-13	76.530166
-40.5001	-3.0136E-10	76.70847	0.0499997	-1.07E-12	76.70847
-41.0001	-3.1064E-10	76.884886	0.0500001	2.63E-12	76.884886
-41.5001	-3.0831E-10	77.077408	0.05	1.74E-12	77.077408
-42	-3.0643E-10	77.253983	0.0500002	1.45E-12	77.253983
-42.5	-3.1744E-10	77.430546	0.0499999	4.93E-12	77.430546
-43.0001	-3.1259E-10	77.648115	0.0499999	1.9E-12	77.648115
-43.5001	-3.1408E-10	77.824635	0.0499999	-8E-14	77.824635
-44	-3.2156E-10	78.001211	0.0500002	1.72E-12	78.001211
-44.5	-3.2152E-10	78.177639	0.0499998	1.56E-12	78.177639
-45.0001	-3.2198E-10	78.354238	0.05	2.86E-12	78.354238
-45.5001	-3.2529E-10	78.530678	0.0500001	1.7E-12	78.530678
-46.0001	-3.3093E-10	78.707729	0.0500002	1.89E-12	78.707729
-46.5	-3.3525E-10	78.884243	0.05	1.23E-12	78.884243
-47	-3.356E-10	79.083054	0.0499999	8.5E-13	79.083054
-47.5	-3.3698E-10	79.259651	0.0500002	1.47E-12	79.259651
-48	-3.3456E-10	79.436213	0.0500002	5.1E-13	79.436213
-48.5	-3.3766E-10	79.653753	0.05	2.44E-12	79.653753
-49	-3.3775E-10	79.830286	0.0500001	2.87E-12	79.830286
-49.5	-3.4762E-10	80.006906	0.0499998	1.93E-12	80.006906
-50.0001	-3.5045E-10	80.183449	0.05	2.08E-12	80.183449
-50.5	-3.5599E-10	80.359983	0.05	2.63E-12	80.359983
-51	-3.4498E-10	80.53654	0.0499999	-2.3E-13	80.53654
-51.5001	-3.4792E-10	80.713404	0.0499998	4.9E-13	80.713404
-52	-3.5943E-10	80.889914	0.05	2.6E-12	80.889914
-52.5	-3.5518E-10	81.088785	0.05	2.24E-12	81.088785
-53	-3.5999E-10	81.265342	0.0499999	1.86E-12	81.265342
-53.5	-3.6643E-10	81.441863	0.05	3.2E-13	81.441863
-54	-3.6099E-10	81.671779	0.0499999	2.8E-12	81.671779
-54.5001	-3.71E-10	81.848381	0.0499998	2.55E-12	81.848381
-55.0001	-3.7595E-10	82.024973	0.0499999	3.08E-12	82.024973
-55.5001	-3.7663E-10	82.201612	0.0499999	1.36E-12	82.201612
-56	-3.7438E-10	82.37826	0.0500001	2.45E-12	82.37826
-56.5001	-3.7514E-10	82.554758	0.0499998	3.97E-12	82.554758
-57	-3.8669E-10	82.751373	0.0499998	4.4E-12	82.751373
-57.5001	-3.8631E-10	82.927944	0.0499999	2.99E-12	82.927944
-58	-3.8366E-10	83.138279	0.05	4.56E-12	83.138279
-58.5	-3.8588E-10	83.314965	0.0499998	2.55E-12	83.314965
-59	-3.9265E-10	83.491494	0.05	2.79E-12	83.491494
-59.5	-3.924E-10	83.668706	0.0499999	2.47E-12	83.668706
-60.0001	-3.8611E-10	83.845291	0.05	6.9E-13	83.845291
