File Name: 06_Sample4_device1_It_150kV_VDrain1V_VGate1V_foil.dat
File Data: 16/11/2023	15:56:18
Start V: 0
Step V: 0
Stop V: 0
Range V: 200
Delay(ms): 0
Auorange: yes
Sweep type: log
Instrument Meter: SM2614
Time(ms)	Vdrain(V)	Idrain(A)	Vgate(V)	Igate(A)
0.0000E+0	1.0000E+0	1.7099E-5	1.0000E+0	6.3574E-12
1.0000E+3	1.0000E+0	1.7055E-5	1.0000E+0	5.5051E-12
1.5000E+3	1.0000E+0	1.7013E-5	1.0000E+0	5.2750E-12
2.0000E+3	1.0000E+0	1.6992E-5	1.0000E+0	4.9269E-12
2.5000E+3	1.0000E+0	1.6952E-5	1.0000E+0	4.9257E-12
3.0000E+3	1.0000E+0	1.6916E-5	1.0000E+0	4.8733E-12
3.5000E+3	1.0000E+0	1.6892E-5	1.0000E+0	4.6659E-12
4.0000E+3	1.0000E+0	1.6852E-5	1.0000E+0	4.4870E-12
4.5000E+3	1.0000E+0	1.6832E-5	1.0000E+0	4.5073E-12
5.0000E+3	1.0000E+0	1.6804E-5	1.0000E+0	4.3881E-12
5.5000E+3	1.0000E+0	1.6778E-5	1.0000E+0	4.3500E-12
6.0000E+3	1.0000E+0	1.6771E-5	1.0000E+0	4.3225E-12
6.5000E+3	1.0000E+0	1.6743E-5	1.0000E+0	4.3321E-12
7.0000E+3	1.0000E+0	1.6709E-5	1.0000E+0	4.2033E-12
7.5000E+3	1.0000E+0	1.6705E-5	1.0000E+0	4.1628E-12
8.0000E+3	1.0000E+0	1.6687E-5	1.0000E+0	4.0615E-12
8.5000E+3	1.0000E+0	1.6666E-5	1.0000E+0	4.1580E-12
9.0000E+3	1.0000E+0	1.6633E-5	1.0000E+0	4.0138E-12
9.5000E+3	1.0000E+0	1.6630E-5	1.0000E+0	4.0221E-12
1.0000E+4	1.0000E+0	1.6593E-5	1.0000E+0	4.0162E-12
1.0500E+4	1.0000E+0	1.6588E-5	1.0000E+0	4.0186E-12
1.1000E+4	1.0000E+0	1.6544E-5	1.0000E+0	4.0102E-12
1.1500E+4	1.0000E+0	1.6494E-5	1.0000E+0	3.9697E-12
1.2000E+4	1.0000E+0	1.6482E-5	1.0000E+0	3.9911E-12
1.2500E+4	1.0000E+0	1.6446E-5	1.0000E+0	3.9792E-12
1.3000E+4	1.0000E+0	1.6453E-5	1.0000E+0	3.8457E-12
1.3500E+4	1.0000E+0	1.6420E-5	1.0000E+0	3.8827E-12
1.4000E+4	1.0000E+0	1.6370E-5	1.0000E+0	3.9971E-12
1.4500E+4	1.0000E+0	1.6352E-5	1.0000E+0	3.9864E-12
1.5000E+4	1.0000E+0	1.6300E-5	1.0000E+0	3.8517E-12
1.5500E+4	1.0000E+0	1.6268E-5	1.0000E+0	3.9184E-12
1.6000E+4	1.0000E+0	1.6244E-5	1.0000E+0	3.7456E-12
1.6500E+4	1.0000E+0	1.6227E-5	1.0000E+0	3.8290E-12
1.7000E+4	1.0000E+0	1.6206E-5	1.0000E+0	3.7336E-12
1.7500E+4	1.0000E+0	1.6171E-5	1.0000E+0	3.7551E-12
1.8000E+4	1.0000E+0	1.6137E-5	1.0000E+0	3.6752E-12
1.8500E+4	1.0000E+0	1.6129E-5	1.0000E+0	3.7670E-12
1.9000E+4	1.0000E+0	1.6088E-5	1.0000E+0	3.6681E-12
1.9500E+4	1.0000E+0	1.6049E-5	1.0000E+0	3.7169E-12
2.0000E+4	1.0000E+0	1.6024E-5	1.0000E+0	3.7587E-12
2.0500E+4	1.0000E+0	1.6019E-5	1.0000E+0	3.5679E-12
2.1000E+4	1.0000E+0	1.5985E-5	1.0000E+0	3.7503E-12
2.1500E+4	1.0000E+0	1.5974E-5	1.0000E+0	3.7289E-12
2.2000E+4	1.0000E+0	1.5950E-5	1.0000E+0	3.6180E-12
2.2500E+4	1.0000E+0	1.5898E-5	1.0000E+0	3.7682E-12
2.3000E+4	1.0000E+0	1.5880E-5	1.0000E+0	3.7110E-12
2.3500E+4	1.0000E+0	1.5869E-5	1.0000E+0	3.7110E-12
2.4000E+4	1.0000E+0	1.5821E-5	1.0000E+0	3.7610E-12
2.4500E+4	1.0000E+0	1.5829E-5	1.0000E+0	3.7062E-12
2.5000E+4	1.0000E+0	1.5782E-5	1.0000E+0	3.6943E-12
2.5500E+4	1.0000E+0	1.5764E-5	1.0000E+0	3.6085E-12
2.6000E+4	1.0000E+0	1.5754E-5	1.0000E+0	3.6418E-12
2.6500E+4	1.0000E+0	1.5741E-5	1.0000E+0	3.5679E-12
2.7000E+4	1.0000E+0	1.5724E-5	1.0000E+0	3.6216E-12
2.7500E+4	1.0000E+0	1.5713E-5	1.0000E+0	3.6681E-12
2.8000E+4	1.0000E+0	1.5677E-5	1.0000E+0	3.6287E-12
2.8500E+4	1.0000E+0	1.5658E-5	1.0000E+0	3.7670E-12
2.9000E+4	1.0000E+0	1.5651E-5	1.0000E+0	3.6287E-12
2.9500E+4	1.0000E+0	1.5629E-5	1.0000E+0	3.7038E-12
3.0000E+4	1.0000E+0	1.5592E-5	1.0000E+0	3.5667E-12
3.0500E+4	1.0000E+0	1.5596E-5	1.0000E+0	3.6156E-12
3.1000E+4	1.0000E+0	1.5577E-5	1.0000E+0	3.6490E-12
3.1500E+4	1.0000E+0	1.5555E-5	1.0000E+0	3.5596E-12
3.2000E+4	1.0000E+0	1.5535E-5	1.0000E+0	3.5667E-12
3.2500E+4	1.0000E+0	1.5520E-5	1.0000E+0	3.5727E-12
3.3000E+4	1.0000E+0	1.5502E-5	1.0000E+0	3.5358E-12
3.3500E+4	1.0000E+0	1.5510E-5	1.0000E+0	3.6049E-12
3.4000E+4	1.0000E+0	1.5469E-5	1.0000E+0	3.7205E-12
3.4500E+4	1.0000E+0	1.5443E-5	1.0000E+0	3.5465E-12
3.5000E+4	1.0000E+0	1.5420E-5	1.0000E+0	3.6621E-12
3.5500E+4	1.0000E+0	1.5398E-5	1.0000E+0	3.6502E-12
3.6000E+4	1.0000E+0	1.5352E-5	1.0000E+0	3.6097E-12
3.6500E+4	1.0000E+0	1.5313E-5	1.0000E+0	3.5012E-12
3.7000E+4	1.0000E+0	1.5313E-5	1.0000E+0	3.4487E-12
3.7500E+4	1.0000E+0	1.5311E-5	1.0000E+0	3.5620E-12
3.8000E+4	1.0000E+0	1.5275E-5	1.0000E+0	3.5667E-12
3.8500E+4	1.0000E+0	1.5233E-5	1.0000E+0	3.5942E-12
3.9000E+4	1.0000E+0	1.5229E-5	1.0000E+0	3.4976E-12
3.9500E+4	1.0000E+0	1.5209E-5	1.0000E+0	3.6025E-12
4.0000E+4	1.0000E+0	1.5186E-5	1.0000E+0	3.5429E-12
4.0500E+4	1.0000E+0	1.5156E-5	1.0000E+0	3.5179E-12
4.1000E+4	1.0000E+0	1.5141E-5	1.0000E+0	3.4976E-12
4.1500E+4	1.0000E+0	1.5132E-5	1.0000E+0	3.4523E-12
4.2000E+4	1.0000E+0	1.5109E-5	1.0000E+0	3.5441E-12
4.2500E+4	1.0000E+0	1.5085E-5	1.0000E+0	3.4416E-12
4.3000E+4	1.0000E+0	1.5067E-5	1.0000E+0	3.4678E-12
4.3500E+4	1.0000E+0	1.5039E-5	1.0000E+0	3.4738E-12
4.4000E+4	1.0000E+0	1.5026E-5	1.0000E+0	3.5095E-12
4.4500E+4	1.0000E+0	1.5011E-5	1.0000E+0	3.4630E-12
4.5000E+4	1.0000E+0	1.4976E-5	1.0000E+0	3.4618E-12
4.5500E+4	1.0000E+0	1.4969E-5	1.0000E+0	3.5596E-12
4.6000E+4	1.0000E+0	1.4963E-5	1.0000E+0	3.5763E-12
4.6500E+4	1.0000E+0	1.4929E-5	1.0000E+0	3.5691E-12
4.7000E+4	1.0000E+0	1.4916E-5	1.0000E+0	3.6383E-12
4.7500E+4	1.0000E+0	1.4874E-5	1.0000E+0	3.6740E-12
4.8000E+4	1.0000E+0	1.4859E-5	1.0000E+0	3.6514E-12
4.8500E+4	1.0000E+0	1.4840E-5	1.0000E+0	3.5024E-12
4.9000E+4	1.0000E+0	1.4808E-5	1.0000E+0	3.5429E-12
4.9500E+4	1.0000E+0	1.4792E-5	1.0000E+0	3.5238E-12
5.0000E+4	1.0000E+0	1.4770E-5	1.0000E+0	3.5191E-12
5.0500E+4	1.0000E+0	1.4755E-5	1.0000E+0	3.5047E-12
5.1000E+4	1.0000E+0	1.4744E-5	1.0000E+0	3.5489E-12
5.1500E+4	1.0000E+0	1.4724E-5	1.0000E+0	3.5298E-12
5.2000E+4	1.0000E+0	1.4704E-5	1.0000E+0	3.6824E-12
5.2500E+4	1.0000E+0	1.4694E-5	1.0000E+0	3.5918E-12
5.3000E+4	1.0000E+0	1.4679E-5	1.0000E+0	3.4964E-12
5.3500E+4	1.0000E+0	1.4643E-5	1.0000E+0	3.6800E-12
5.4000E+4	1.0000E+0	1.4639E-5	1.0000E+0	3.5644E-12
5.4500E+4	1.0000E+0	1.4616E-5	1.0000E+0	3.5310E-12
5.5000E+4	1.0000E+0	1.4612E-5	1.0000E+0	3.4082E-12
5.5500E+4	1.0000E+0	1.4581E-5	1.0000E+0	3.5667E-12
5.6000E+4	1.0000E+0	1.4560E-5	1.0000E+0	3.5119E-12
5.6500E+4	1.0000E+0	1.4539E-5	1.0000E+0	3.4916E-12
5.7000E+4	1.0000E+0	1.4506E-5	1.0000E+0	3.5226E-12
5.7500E+4	1.0000E+0	1.4498E-5	1.0000E+0	3.4916E-12
5.8000E+4	1.0000E+0	1.4498E-5	1.0000E+0	3.5107E-12
5.8500E+4	1.0000E+0	1.4479E-5	1.0000E+0	3.4440E-12
5.9000E+4	1.0000E+0	1.4477E-5	1.0000E+0	3.4845E-12
5.9500E+4	1.0000E+0	1.4469E-5	1.0000E+0	3.4678E-12
6.0000E+4	1.0000E+0	1.4440E-5	1.0000E+0	3.4094E-12
6.0500E+4	1.0000E+0	1.4417E-5	1.0000E+0	3.4058E-12
6.1000E+4	1.0000E+0	1.4407E-5	1.0000E+0	3.4404E-12
6.1500E+4	1.0000E+0	1.4376E-5	1.0000E+0	3.3665E-12
6.2000E+4	1.0000E+0	1.4372E-5	1.0000E+0	3.2866E-12
6.2500E+4	1.0000E+0	1.4360E-5	1.0000E+0	3.4213E-12
6.3000E+4	1.0000E+0	1.4353E-5	1.0000E+0	3.4904E-12
6.3500E+4	1.0000E+0	1.4312E-5	1.0000E+0	3.4177E-12
6.4000E+4	1.0000E+0	1.4307E-5	1.0000E+0	3.4332E-12
6.4500E+4	1.0000E+0	1.4272E-5	1.0000E+0	3.4702E-12
6.5000E+4	1.0000E+0	1.4267E-5	1.0000E+0	3.5155E-12
6.5500E+4	1.0000E+0	1.4214E-5	1.0000E+0	3.4606E-12
6.6000E+4	1.0000E+0	1.4195E-5	1.0000E+0	3.4928E-12
6.6500E+4	1.0000E+0	1.4182E-5	1.0000E+0	3.5334E-12
6.7000E+4	1.0000E+0	1.4197E-5	1.0000E+0	3.4475E-12
6.7500E+4	1.0000E+0	1.4177E-5	1.0000E+0	3.4547E-12
6.8000E+4	1.0000E+0	1.4168E-5	1.0000E+0	3.4297E-12
6.8500E+4	1.0000E+0	1.4152E-5	1.0000E+0	3.4618E-12
6.9000E+4	1.0000E+0	1.4141E-5	1.0000E+0	3.4571E-12
6.9500E+4	1.0000E+0	1.4115E-5	1.0000E+0	3.3915E-12
7.0000E+4	1.0000E+0	1.4081E-5	1.0000E+0	3.4440E-12
7.0500E+4	1.0000E+0	1.4081E-5	1.0000E+0	3.5751E-12
7.1000E+4	1.0000E+0	1.4064E-5	1.0000E+0	3.4118E-12
7.1500E+4	1.0000E+0	1.4050E-5	1.0000E+0	3.4916E-12
7.2000E+4	1.0000E+0	1.4034E-5	1.0000E+0	3.4428E-12
7.2500E+4	1.0000E+0	1.4009E-5	1.0000E+0	3.4714E-12
7.3000E+4	1.0000E+0	1.3991E-5	1.0000E+0	3.5167E-12
7.3500E+4	1.0000E+0	1.3958E-5	1.0000E+0	3.5226E-12
7.4000E+4	1.0000E+0	1.3923E-5	1.0000E+0	3.5024E-12
7.4500E+4	1.0000E+0	1.3934E-5	1.0000E+0	3.5703E-12
7.5000E+4	1.0000E+0	1.3915E-5	1.0000E+0	3.4904E-12
7.5500E+4	1.0000E+0	1.3900E-5	1.0000E+0	3.3796E-12
7.6000E+4	1.0000E+0	1.3883E-5	1.0000E+0	3.5477E-12
7.6500E+4	1.0000E+0	1.3884E-5	1.0000E+0	3.5274E-12
7.7000E+4	1.0000E+0	1.3886E-5	1.0000E+0	3.5381E-12
7.7500E+4	1.0000E+0	1.3859E-5	1.0000E+0	3.5119E-12
7.8000E+4	1.0000E+0	1.3851E-5	1.0000E+0	3.4702E-12
7.8500E+4	1.0000E+0	1.3802E-5	1.0000E+0	3.6192E-12
7.9000E+4	1.0000E+0	1.3814E-5	1.0000E+0	3.5083E-12
7.9500E+4	1.0000E+0	1.3789E-5	1.0000E+0	3.4761E-12
8.0000E+4	1.0000E+0	1.3761E-5	1.0000E+0	3.4606E-12
8.0500E+4	1.0000E+0	1.3768E-5	1.0000E+0	3.6061E-12
8.1000E+4	1.0000E+0	1.3736E-5	1.0000E+0	3.4618E-12
8.1500E+4	1.0000E+0	1.3724E-5	1.0000E+0	3.3712E-12
8.2000E+4	1.0000E+0	1.3672E-5	1.0000E+0	3.3843E-12
8.2500E+4	1.0000E+0	1.3673E-5	1.0000E+0	3.4511E-12
8.3000E+4	1.0000E+0	1.3676E-5	1.0000E+0	3.4845E-12
8.3500E+4	1.0000E+0	1.3655E-5	1.0000E+0	3.5000E-12
8.4000E+4	1.0000E+0	1.3628E-5	1.0000E+0	3.5036E-12
8.4500E+4	1.0000E+0	1.3588E-5	1.0000E+0	3.6204E-12
8.5000E+4	1.0000E+0	1.3562E-5	1.0000E+0	3.5751E-12
8.5500E+4	1.0000E+0	1.3540E-5	1.0000E+0	3.4845E-12
8.6000E+4	1.0000E+0	1.3535E-5	1.0000E+0	3.5441E-12
8.6500E+4	1.0000E+0	1.3500E-5	1.0000E+0	3.6848E-12
8.7000E+4	1.0000E+0	1.3496E-5	1.0000E+0	3.6311E-12
8.7500E+4	1.0000E+0	1.3484E-5	1.0000E+0	3.5918E-12
8.8000E+4	1.0000E+0	1.3481E-5	1.0000E+0	3.6442E-12
8.8500E+4	1.0000E+0	1.3458E-5	1.0000E+0	3.5334E-12
8.9000E+4	1.0000E+0	1.3461E-5	1.0000E+0	3.7050E-12
8.9500E+4	1.0000E+0	1.3424E-5	1.0000E+0	3.5822E-12
9.0000E+4	1.0000E+0	1.3399E-5	1.0000E+0	3.5870E-12
9.0500E+4	1.0000E+0	1.3384E-5	1.0000E+0	3.5107E-12
9.1000E+4	1.0000E+0	1.3332E-5	1.0000E+0	3.5632E-12
9.1500E+4	1.0000E+0	1.3340E-5	1.0000E+0	3.5012E-12
9.2000E+4	1.0000E+0	1.3324E-5	1.0000E+0	3.4738E-12
9.2500E+4	1.0000E+0	1.3313E-5	1.0000E+0	3.3891E-12
9.3000E+4	1.0000E+0	1.3287E-5	1.0000E+0	3.5572E-12
9.3500E+4	1.0000E+0	1.3262E-5	1.0000E+0	3.4869E-12
9.4000E+4	1.0000E+0	1.3256E-5	1.0000E+0	3.5870E-12
9.4500E+4	1.0000E+0	1.3251E-5	1.0000E+0	3.4654E-12
9.5000E+4	1.0000E+0	1.3235E-5	1.0000E+0	3.3498E-12
9.5500E+4	1.0000E+0	1.3226E-5	1.0000E+0	3.6216E-12
9.6000E+4	1.0000E+0	1.3203E-5	1.0000E+0	3.5644E-12
9.6500E+4	1.0000E+0	1.3190E-5	1.0000E+0	3.5060E-12
9.7000E+4	1.0000E+0	1.3169E-5	1.0000E+0	3.4809E-12
9.7500E+4	1.0000E+0	1.3172E-5	1.0000E+0	3.4547E-12
9.8000E+4	1.0000E+0	1.3142E-5	1.0000E+0	3.5322E-12
9.8500E+4	1.0000E+0	1.3134E-5	1.0000E+0	3.5047E-12
9.9000E+4	1.0000E+0	1.3112E-5	1.0000E+0	3.6430E-12
9.9500E+4	1.0000E+0	1.3109E-5	1.0000E+0	3.6061E-12
1.0000E+5	1.0000E+0	1.3093E-5	1.0000E+0	3.5429E-12
1.0050E+5	1.0000E+0	1.3085E-5	1.0000E+0	3.6144E-12
1.0100E+5	1.0000E+0	1.3056E-5	1.0000E+0	3.6848E-12
1.0150E+5	1.0000E+0	1.3038E-5	1.0000E+0	3.5751E-12
1.0200E+5	1.0000E+0	1.3009E-5	1.0000E+0	3.4595E-12
1.0250E+5	1.0000E+0	1.2988E-5	1.0000E+0	3.5179E-12
1.0300E+5	1.0000E+0	1.2971E-5	1.0000E+0	3.4714E-12
1.0350E+5	1.0000E+0	1.2957E-5	1.0000E+0	3.4356E-12
1.0400E+5	1.0000E+0	1.2944E-5	1.0000E+0	3.6550E-12
1.0450E+5	1.0000E+0	1.2909E-5	1.0000E+0	3.5310E-12
1.0500E+5	1.0000E+0	1.2923E-5	1.0000E+0	3.5095E-12
1.0550E+5	1.0000E+0	1.2887E-5	1.0000E+0	3.4452E-12
1.0600E+5	1.0000E+0	1.2898E-5	1.0000E+0	3.6073E-12
1.0650E+5	1.0000E+0	1.2875E-5	1.0000E+0	3.4428E-12
1.0700E+5	1.0000E+0	1.2847E-5	1.0000E+0	3.5930E-12
1.0750E+5	1.0000E+0	1.2831E-5	1.0000E+0	3.6597E-12
1.0800E+5	1.0000E+0	1.2812E-5	1.0000E+0	3.5751E-12
1.0850E+5	1.0000E+0	1.2802E-5	1.0000E+0	3.5095E-12
1.0900E+5	1.0000E+0	1.2798E-5	1.0000E+0	3.4130E-12
1.0950E+5	1.0000E+0	1.2783E-5	1.0000E+0	3.5167E-12
1.1000E+5	1.0000E+0	1.2773E-5	1.0000E+0	3.6287E-12
1.1050E+5	1.0000E+0	1.2746E-5	1.0000E+0	3.5214E-12
1.1100E+5	1.0000E+0	1.2736E-5	1.0000E+0	3.4964E-12
1.1150E+5	1.0000E+0	1.2706E-5	1.0000E+0	3.6204E-12
1.1200E+5	1.0000E+0	1.2705E-5	1.0000E+0	3.6395E-12
1.1250E+5	1.0000E+0	1.2690E-5	1.0000E+0	3.6704E-12
1.1300E+5	1.0000E+0	1.2679E-5	1.0000E+0	3.5846E-12
1.1350E+5	1.0000E+0	1.2654E-5	1.0000E+0	3.6061E-12
1.1400E+5	1.0000E+0	1.2654E-5	1.0000E+0	3.5524E-12
1.1450E+5	1.0000E+0	1.2622E-5	1.0000E+0	3.6728E-12
1.1500E+5	1.0000E+0	1.2631E-5	1.0000E+0	3.5596E-12
1.1550E+5	1.0000E+0	1.2625E-5	1.0000E+0	3.4881E-12
1.1600E+5	1.0000E+0	1.2603E-5	1.0000E+0	3.5238E-12
1.1650E+5	1.0000E+0	1.2578E-5	1.0000E+0	3.5334E-12
1.1700E+5	1.0000E+0	1.2601E-5	1.0000E+0	3.6085E-12
1.1750E+5	1.0000E+0	1.2581E-5	1.0000E+0	3.6168E-12
1.1800E+5	1.0000E+0	1.2569E-5	1.0000E+0	3.5417E-12
1.1850E+5	1.0000E+0	1.2533E-5	1.0000E+0	3.6347E-12
1.1900E+5	1.0000E+0	1.2494E-5	1.0000E+0	3.4976E-12
1.1950E+5	1.0000E+0	1.2463E-5	1.0000E+0	3.5703E-12
1.2000E+5	1.0000E+0	1.2462E-5	1.0000E+0	3.6693E-12
1.2050E+5	1.0000E+0	1.2446E-5	1.0000E+0	3.6323E-12
1.2100E+5	1.0000E+0	1.2423E-5	1.0000E+0	3.6192E-12
1.2150E+5	1.0000E+0	1.2427E-5	1.0000E+0	3.3724E-12
1.2200E+5	1.0000E+0	1.2419E-5	1.0000E+0	3.4988E-12
1.2250E+5	1.0000E+0	1.2415E-5	1.0000E+0	3.4869E-12
1.2300E+5	1.0000E+0	1.2381E-5	1.0000E+0	3.5226E-12
1.2350E+5	1.0000E+0	1.2362E-5	1.0000E+0	3.5632E-12
1.2400E+5	1.0000E+0	1.2372E-5	1.0000E+0	3.4869E-12
1.2450E+5	1.0000E+0	1.2371E-5	1.0000E+0	3.4535E-12
1.2500E+5	1.0000E+0	1.2335E-5	1.0000E+0	3.5047E-12
1.2550E+5	1.0000E+0	1.2327E-5	1.0000E+0	3.5560E-12
1.2600E+5	1.0000E+0	1.2312E-5	1.0000E+0	3.4904E-12
1.2650E+5	1.0000E+0	1.2312E-5	1.0000E+0	3.5119E-12
1.2700E+5	1.0000E+0	1.2304E-5	1.0000E+0	3.6585E-12
1.2750E+5	1.0000E+0	1.2275E-5	1.0000E+0	3.5441E-12
1.2800E+5	1.0000E+0	1.2263E-5	1.0000E+0	3.7241E-12
1.2850E+5	1.0000E+0	1.2252E-5	1.0000E+0	3.6383E-12
1.2900E+5	1.0000E+0	1.2248E-5	1.0000E+0	3.6442E-12
1.2950E+5	1.0000E+0	1.2246E-5	1.0000E+0	3.6538E-12
1.3000E+5	1.0000E+0	1.2242E-5	1.0000E+0	3.6049E-12
1.3050E+5	1.0000E+0	1.2219E-5	1.0000E+0	3.6371E-12
1.3100E+5	1.0000E+0	1.2218E-5	1.0000E+0	3.6299E-12
1.3150E+5	1.0000E+0	1.2209E-5	1.0000E+0	3.6335E-12
1.3200E+5	1.0000E+0	1.2208E-5	1.0000E+0	3.5429E-12
1.3250E+5	1.0000E+0	1.2216E-5	1.0000E+0	3.4976E-12
1.3300E+5	1.0000E+0	1.2184E-5	1.0000E+0	3.6836E-12
1.3350E+5	1.0000E+0	1.2156E-5	1.0000E+0	3.7265E-12
1.3400E+5	1.0000E+0	1.2138E-5	1.0000E+0	3.6633E-12
1.3450E+5	1.0000E+0	1.2145E-5	1.0000E+0	3.4404E-12
1.3500E+5	1.0000E+0	1.2118E-5	1.0000E+0	3.5560E-12
1.3550E+5	1.0000E+0	1.2136E-5	1.0000E+0	3.4547E-12
1.3600E+5	1.0000E+0	1.2109E-5	1.0000E+0	3.5310E-12
1.3650E+5	1.0000E+0	1.2095E-5	1.0000E+0	3.6418E-12
1.3700E+5	1.0000E+0	1.2094E-5	1.0000E+0	3.6383E-12
1.3750E+5	1.0000E+0	1.2082E-5	1.0000E+0	3.7873E-12
1.3800E+5	1.0000E+0	1.2069E-5	1.0000E+0	3.6752E-12
1.3850E+5	1.0000E+0	1.2065E-5	1.0000E+0	3.7312E-12
1.3900E+5	1.0000E+0	1.2039E-5	1.0000E+0	3.6073E-12
1.3950E+5	1.0000E+0	1.2040E-5	1.0000E+0	3.7491E-12
1.4000E+5	1.0000E+0	1.2029E-5	1.0000E+0	3.7575E-12
1.4050E+5	1.0000E+0	1.2017E-5	1.0000E+0	3.5667E-12
1.4100E+5	1.0000E+0	1.2002E-5	1.0000E+0	3.6371E-12
1.4150E+5	1.0000E+0	1.1979E-5	1.0000E+0	3.6478E-12
1.4200E+5	1.0000E+0	1.1981E-5	1.0000E+0	3.6502E-12
1.4250E+5	1.0000E+0	1.1938E-5	1.0000E+0	3.7658E-12
1.4300E+5	1.0000E+0	1.1917E-5	1.0000E+0	3.6764E-12
1.4350E+5	1.0000E+0	1.1908E-5	1.0000E+0	3.7444E-12
1.4400E+5	1.0000E+0	1.1895E-5	1.0000E+0	3.7169E-12
1.4450E+5	1.0000E+0	1.1882E-5	1.0000E+0	3.7539E-12
1.4500E+5	1.0000E+0	1.1850E-5	1.0000E+0	3.6144E-12
1.4550E+5	1.0000E+0	1.1857E-5	1.0000E+0	3.5858E-12
1.4600E+5	1.0000E+0	1.1840E-5	1.0000E+0	3.6919E-12
1.4650E+5	1.0000E+0	1.1844E-5	1.0000E+0	3.7849E-12
1.4700E+5	1.0000E+0	1.1839E-5	1.0000E+0	3.6001E-12
1.4750E+5	1.0000E+0	1.1829E-5	1.0000E+0	3.5894E-12
1.4800E+5	1.0000E+0	1.1809E-5	1.0000E+0	3.6657E-12
1.4850E+5	1.0000E+0	1.1798E-5	1.0000E+0	3.6430E-12
1.4900E+5	1.0000E+0	1.1737E-5	1.0000E+0	3.7134E-12
1.4950E+5	1.0000E+0	1.1751E-5	1.0000E+0	3.7968E-12
1.5000E+5	1.0000E+0	1.1751E-5	1.0000E+0	3.5620E-12
1.5050E+5	1.0000E+0	1.1735E-5	1.0000E+0	3.5536E-12
1.5100E+5	1.0000E+0	1.1709E-5	1.0000E+0	3.5846E-12
1.5150E+5	1.0000E+0	1.1697E-5	1.0000E+0	3.6287E-12
1.5200E+5	1.0000E+0	1.1668E-5	1.0000E+0	3.6264E-12
1.5250E+5	1.0000E+0	1.1643E-5	1.0000E+0	3.6609E-12
1.5300E+5	1.0000E+0	1.1640E-5	1.0000E+0	3.5798E-12
1.5350E+5	1.0000E+0	1.1632E-5	1.0000E+0	3.5453E-12
1.5400E+5	1.0000E+0	1.1632E-5	1.0000E+0	3.6085E-12
1.5450E+5	1.0000E+0	1.1619E-5	1.0000E+0	3.7050E-12
1.5500E+5	1.0000E+0	1.1611E-5	1.0000E+0	3.7408E-12
1.5550E+5	1.0000E+0	1.1597E-5	1.0000E+0	3.6621E-12
1.5600E+5	1.0000E+0	1.1579E-5	1.0000E+0	3.6502E-12
1.5650E+5	1.0000E+0	1.1557E-5	1.0000E+0	3.6299E-12
1.5700E+5	1.0000E+0	1.1534E-5	1.0000E+0	3.6454E-12
1.5750E+5	1.0000E+0	1.1527E-5	1.0000E+0	3.6991E-12
1.5800E+5	1.0000E+0	1.1534E-5	1.0000E+0	3.7015E-12
1.5850E+5	1.0000E+0	1.1528E-5	1.0000E+0	3.6192E-12
1.5900E+5	1.0000E+0	1.1506E-5	1.0000E+0	3.6335E-12
1.5950E+5	1.0000E+0	1.1475E-5	1.0000E+0	3.7825E-12
1.6000E+5	1.0000E+0	1.1456E-5	1.0000E+0	3.5441E-12
1.6050E+5	1.0000E+0	1.1449E-5	1.0000E+0	3.5954E-12
1.6100E+5	1.0000E+0	1.1460E-5	1.0000E+0	3.6037E-12
1.6150E+5	1.0000E+0	1.1453E-5	1.0000E+0	3.5810E-12
1.6200E+5	1.0000E+0	1.1456E-5	1.0000E+0	3.6526E-12
1.6250E+5	1.0000E+0	1.1433E-5	1.0000E+0	3.5906E-12
1.6300E+5	1.0000E+0	1.1417E-5	1.0000E+0	3.5763E-12
1.6350E+5	1.0000E+0	1.1420E-5	1.0000E+0	3.5596E-12
1.6400E+5	1.0000E+0	1.1402E-5	1.0000E+0	3.6192E-12
1.6450E+5	1.0000E+0	1.1418E-5	1.0000E+0	3.6371E-12
1.6500E+5	1.0000E+0	1.1409E-5	1.0000E+0	3.6311E-12
1.6550E+5	1.0000E+0	1.1404E-5	1.0000E+0	3.5596E-12
1.6600E+5	1.0000E+0	1.1407E-5	1.0000E+0	3.5751E-12
1.6650E+5	1.0000E+0	1.1386E-5	1.0000E+0	3.4940E-12
1.6700E+5	1.0000E+0	1.1390E-5	1.0000E+0	3.8338E-12
1.6750E+5	1.0000E+0	1.1360E-5	1.0000E+0	3.6776E-12
1.6800E+5	1.0000E+0	1.1363E-5	1.0000E+0	3.6049E-12
1.6850E+5	1.0000E+0	1.1356E-5	1.0000E+0	3.6335E-12
1.6900E+5	1.0000E+0	1.1339E-5	1.0000E+0	3.5894E-12
1.6950E+5	1.0000E+0	1.1334E-5	1.0000E+0	3.5608E-12
1.7000E+5	1.0000E+0	1.1311E-5	1.0000E+0	3.6716E-12
1.7050E+5	1.0000E+0	1.1313E-5	1.0000E+0	3.6359E-12
1.7100E+5	1.0000E+0	1.1311E-5	1.0000E+0	3.6264E-12
1.7150E+5	1.0000E+0	1.1295E-5	1.0000E+0	3.6871E-12
1.7200E+5	1.0000E+0	1.1304E-5	1.0000E+0	3.7754E-12
1.7250E+5	1.0000E+0	1.1293E-5	1.0000E+0	3.6299E-12
1.7300E+5	1.0000E+0	1.1285E-5	1.0000E+0	3.5667E-12
1.7350E+5	1.0000E+0	1.1269E-5	1.0000E+0	3.5727E-12
1.7400E+5	1.0000E+0	1.1271E-5	1.0000E+0	3.6347E-12
1.7450E+5	1.0000E+0	1.1264E-5	1.0000E+0	3.5787E-12
1.7500E+5	1.0000E+0	1.1246E-5	1.0000E+0	3.7074E-12
1.7550E+5	1.0000E+0	1.1238E-5	1.0000E+0	3.6240E-12
1.7600E+5	1.0000E+0	1.1222E-5	1.0000E+0	3.6836E-12
1.7650E+5	1.0000E+0	1.1216E-5	1.0000E+0	3.8028E-12
1.7700E+5	1.0000E+0	1.1207E-5	1.0000E+0	3.7956E-12
1.7750E+5	1.0000E+0	1.1217E-5	1.0000E+0	3.7897E-12
1.7800E+5	1.0000E+0	1.1185E-5	1.0000E+0	3.7098E-12
1.7850E+5	1.0000E+0	1.1200E-5	1.0000E+0	3.6561E-12
1.7900E+5	1.0000E+0	1.1175E-5	1.0000E+0	3.7515E-12
1.7950E+5	1.0000E+0	1.1160E-5	1.0000E+0	3.6895E-12
1.8000E+5	1.0000E+0	1.1132E-5	1.0000E+0	3.6299E-12
1.8050E+5	1.0000E+0	1.1122E-5	1.0000E+0	3.7336E-12
1.8100E+5	1.0000E+0	1.1106E-5	1.0000E+0	3.5655E-12
1.8150E+5	1.0000E+0	1.1075E-5	1.0000E+0	3.6037E-12
1.8200E+5	1.0000E+0	1.1070E-5	1.0000E+0	3.5167E-12
1.8250E+5	1.0000E+0	1.1072E-5	1.0000E+0	3.4511E-12
1.8300E+5	1.0000E+0	1.1053E-5	1.0000E+0	3.3772E-12
1.8350E+5	1.0000E+0	1.1055E-5	1.0000E+0	3.3390E-12
1.8400E+5	1.0000E+0	1.1033E-5	1.0000E+0	3.4308E-12
1.8450E+5	1.0000E+0	1.1020E-5	1.0000E+0	3.4141E-12
1.8500E+5	1.0000E+0	1.1018E-5	1.0000E+0	3.4380E-12
1.8550E+5	1.0000E+0	1.1009E-5	1.0000E+0	3.3963E-12
1.8600E+5	1.0000E+0	1.0993E-5	1.0000E+0	3.4308E-12
1.8650E+5	1.0000E+0	1.0989E-5	1.0000E+0	3.3569E-12
1.8700E+5	1.0000E+0	1.0956E-5	1.0000E+0	3.3593E-12
1.8750E+5	1.0000E+0	1.0944E-5	1.0000E+0	3.4428E-12
1.8800E+5	1.0000E+0	1.0933E-5	1.0000E+0	3.3820E-12
1.8850E+5	1.0000E+0	1.0913E-5	1.0000E+0	3.3486E-12
1.8900E+5	1.0000E+0	1.0920E-5	1.0000E+0	3.4106E-12
1.8950E+5	1.0000E+0	1.0925E-5	1.0000E+0	3.3689E-12
1.9000E+5	1.0000E+0	1.0911E-5	1.0000E+0	3.3235E-12
1.9050E+5	1.0000E+0	1.0914E-5	1.0000E+0	3.2508E-12
1.9100E+5	1.0000E+0	1.0880E-5	1.0000E+0	3.4690E-12
1.9150E+5	1.0000E+0	1.0870E-5	1.0000E+0	3.3951E-12
1.9200E+5	1.0000E+0	1.0865E-5	1.0000E+0	3.2890E-12
1.9250E+5	1.0000E+0	1.0858E-5	1.0000E+0	3.3271E-12
1.9300E+5	1.0000E+0	1.0867E-5	1.0000E+0	3.4070E-12
1.9350E+5	1.0000E+0	1.0883E-5	1.0000E+0	3.3367E-12
1.9400E+5	1.0000E+0	1.0848E-5	1.0000E+0	3.4571E-12
1.9450E+5	1.0000E+0	1.0808E-5	1.0000E+0	3.5274E-12
1.9500E+5	1.0000E+0	1.0797E-5	1.0000E+0	3.3760E-12
1.9550E+5	1.0000E+0	1.0803E-5	1.0000E+0	3.3212E-12
1.9600E+5	1.0000E+0	1.0780E-5	1.0000E+0	3.4452E-12
1.9650E+5	1.0000E+0	1.0776E-5	1.0000E+0	3.3629E-12
1.9700E+5	1.0000E+0	1.0751E-5	1.0000E+0	3.4583E-12
1.9750E+5	1.0000E+0	1.0750E-5	1.0000E+0	3.4213E-12
1.9800E+5	1.0000E+0	1.0730E-5	1.0000E+0	3.4797E-12
1.9850E+5	1.0000E+0	1.0704E-5	1.0000E+0	3.5429E-12
1.9900E+5	1.0000E+0	1.0706E-5	1.0000E+0	3.4976E-12
1.9950E+5	1.0000E+0	1.0712E-5	1.0000E+0	3.6252E-12
2.0000E+5	1.0000E+0	1.0731E-5	1.0000E+0	3.5512E-12
2.0050E+5	1.0000E+0	1.0686E-5	1.0000E+0	3.5930E-12
2.0100E+5	1.0000E+0	1.0687E-5	1.0000E+0	3.6371E-12
2.0150E+5	1.0000E+0	1.0676E-5	1.0000E+0	3.5894E-12
2.0200E+5	1.0000E+0	1.0650E-5	1.0000E+0	3.6538E-12
2.0250E+5	1.0000E+0	1.0643E-5	1.0000E+0	3.6764E-12
2.0300E+5	1.0000E+0	1.0618E-5	1.0000E+0	3.6049E-12
2.0350E+5	1.0000E+0	1.0615E-5	1.0000E+0	3.4976E-12
2.0400E+5	1.0000E+0	1.0621E-5	1.0000E+0	3.5715E-12
2.0450E+5	1.0000E+0	1.0611E-5	1.0000E+0	3.7718E-12
2.0500E+5	1.0000E+0	1.0610E-5	1.0000E+0	3.5775E-12
2.0550E+5	1.0000E+0	1.0583E-5	1.0000E+0	3.5453E-12
2.0600E+5	1.0000E+0	1.0579E-5	1.0000E+0	3.5727E-12
2.0650E+5	1.0000E+0	1.0591E-5	1.0000E+0	3.5405E-12
2.0700E+5	1.0000E+0	1.0563E-5	1.0000E+0	3.6168E-12
2.0750E+5	1.0000E+0	1.0532E-5	1.0000E+0	3.6204E-12
2.0800E+5	1.0000E+0	1.0528E-5	1.0000E+0	3.7527E-12
2.0850E+5	1.0000E+0	1.0537E-5	1.0000E+0	3.6466E-12
2.0900E+5	1.0000E+0	1.0512E-5	1.0000E+0	3.7527E-12
2.0950E+5	1.0000E+0	1.0504E-5	1.0000E+0	3.6859E-12
2.1000E+5	1.0000E+0	1.0493E-5	1.0000E+0	3.6740E-12
2.1050E+5	1.0000E+0	1.0499E-5	1.0000E+0	3.6395E-12
2.1100E+5	1.0000E+0	1.0486E-5	1.0000E+0	3.6502E-12
2.1150E+5	1.0000E+0	1.0489E-5	1.0000E+0	3.6883E-12
2.1200E+5	1.0000E+0	1.0444E-5	1.0000E+0	3.6645E-12
2.1250E+5	1.0000E+0	1.0455E-5	1.0000E+0	3.6859E-12
2.1300E+5	1.0000E+0	1.0451E-5	1.0000E+0	3.6407E-12
2.1350E+5	1.0000E+0	1.0455E-5	1.0000E+0	3.7301E-12
2.1400E+5	1.0000E+0	1.0467E-5	1.0000E+0	3.5262E-12
2.1450E+5	1.0000E+0	1.0466E-5	1.0000E+0	3.6573E-12
2.1500E+5	1.0000E+0	1.0441E-5	1.0000E+0	3.5787E-12
2.1550E+5	1.0000E+0	1.0437E-5	1.0000E+0	3.5405E-12
2.1600E+5	1.0000E+0	1.0441E-5	1.0000E+0	3.6371E-12
2.1700E+5	1.0000E+0	1.0387E-5	1.0000E+0	3.4475E-12
2.1750E+5	1.0000E+0	1.0379E-5	1.0000E+0	3.5060E-12
2.1800E+5	1.0000E+0	1.0372E-5	1.0000E+0	3.5846E-12
2.1850E+5	1.0000E+0	1.0373E-5	1.0000E+0	3.5644E-12
2.1900E+5	1.0000E+0	1.0371E-5	1.0000E+0	3.5203E-12
2.1950E+5	1.0000E+0	1.0370E-5	1.0000E+0	3.5512E-12
2.2000E+5	1.0000E+0	1.0358E-5	1.0000E+0	3.4785E-12
2.2050E+5	1.0000E+0	1.0346E-5	1.0000E+0	3.5751E-12
2.2100E+5	1.0000E+0	1.0341E-5	1.0000E+0	3.5500E-12
2.2150E+5	1.0000E+0	1.0332E-5	1.0000E+0	3.6156E-12
2.2200E+5	1.0000E+0	1.0317E-5	1.0000E+0	3.5298E-12
2.2250E+5	1.0000E+0	1.0312E-5	1.0000E+0	3.5358E-12
2.2300E+5	1.0000E+0	1.0295E-5	1.0000E+0	3.4511E-12
2.2350E+5	1.0000E+0	1.0305E-5	1.0000E+0	3.6466E-12
2.2400E+5	1.0000E+0	1.0318E-5	1.0000E+0	3.4511E-12
2.2450E+5	1.0000E+0	1.0298E-5	1.0000E+0	3.5024E-12
2.2500E+5	1.0000E+0	1.0294E-5	1.0000E+0	3.5536E-12
2.2550E+5	1.0000E+0	1.0284E-5	1.0000E+0	3.5965E-12
2.2600E+5	1.0000E+0	1.0284E-5	1.0000E+0	3.5584E-12
2.2650E+5	1.0000E+0	1.0278E-5	1.0000E+0	3.5286E-12
2.2700E+5	1.0000E+0	1.0272E-5	1.0000E+0	3.6800E-12
2.2750E+5	1.0000E+0	1.0254E-5	1.0000E+0	3.7062E-12
2.2800E+5	1.0000E+0	1.0257E-5	1.0000E+0	3.5083E-12
2.2850E+5	1.0000E+0	1.0232E-5	1.0000E+0	3.5358E-12
2.2900E+5	1.0000E+0	1.0249E-5	1.0000E+0	3.6299E-12
2.2950E+5	1.0000E+0	1.0245E-5	1.0000E+0	3.7205E-12
2.3000E+5	1.0000E+0	1.0206E-5	1.0000E+0	3.7324E-12
2.3050E+5	1.0000E+0	1.0209E-5	1.0000E+0	3.5810E-12
2.3100E+5	1.0000E+0	1.0195E-5	1.0000E+0	3.7312E-12
2.3150E+5	1.0000E+0	1.0195E-5	1.0000E+0	3.7623E-12
2.3200E+5	1.0000E+0	1.0174E-5	1.0000E+0	3.7122E-12
2.3250E+5	1.0000E+0	1.0155E-5	1.0000E+0	3.5512E-12
2.3300E+5	1.0000E+0	1.0150E-5	1.0000E+0	3.5787E-12
2.3350E+5	1.0000E+0	1.0145E-5	1.0000E+0	3.5846E-12
2.3400E+5	1.0000E+0	1.0131E-5	1.0000E+0	3.5667E-12
2.3450E+5	1.0000E+0	1.0124E-5	1.0000E+0	3.6085E-12
2.3500E+5	1.0000E+0	1.0123E-5	1.0000E+0	3.5918E-12
2.3550E+5	1.0000E+0	1.0111E-5	1.0000E+0	3.6430E-12
2.3600E+5	1.0000E+0	1.0086E-5	1.0000E+0	3.5429E-12
2.3650E+5	1.0000E+0	1.0067E-5	1.0000E+0	3.6585E-12
2.3700E+5	1.0000E+0	1.0064E-5	1.0000E+0	3.7873E-12
2.3750E+5	1.0000E+0	1.0051E-5	1.0000E+0	3.5644E-12
2.3800E+5	1.0000E+0	1.0053E-5	1.0000E+0	3.5191E-12
2.3850E+5	1.0000E+0	1.0040E-5	1.0000E+0	3.5930E-12
2.3900E+5	1.0000E+0	1.0032E-5	1.0000E+0	3.6490E-12
2.3950E+5	1.0000E+0	1.0057E-5	1.0000E+0	3.7181E-12
2.4000E+5	1.0000E+0	1.0028E-5	1.0000E+0	3.6264E-12
2.4050E+5	1.0000E+0	9.9957E-6	1.0000E+0	3.6061E-12
2.4100E+5	1.0000E+0	9.9908E-6	1.0000E+0	3.7110E-12
2.4150E+5	1.0000E+0	1.0023E-5	1.0000E+0	3.6359E-12
2.4200E+5	1.0000E+0	1.0028E-5	1.0000E+0	3.6561E-12
2.4250E+5	1.0000E+0	9.9832E-6	1.0000E+0	3.6085E-12
2.4350E+5	1.0000E+0	9.9693E-6	1.0000E+0	3.5846E-12
2.4400E+5	1.0000E+0	9.9461E-6	1.0000E+0	3.5024E-12
2.4450E+5	1.0000E+0	9.9298E-6	1.0000E+0	3.6812E-12
2.4500E+5	1.0000E+0	9.9259E-6	1.0000E+0	3.4678E-12
2.4550E+5	1.0000E+0	9.9258E-6	1.0000E+0	3.7134E-12
2.4600E+5	1.0000E+0	9.9212E-6	1.0000E+0	3.5834E-12
2.4650E+5	1.0000E+0	9.9173E-6	1.0000E+0	3.6264E-12
2.4700E+5	1.0000E+0	9.9264E-6	1.0000E+0	3.6192E-12
2.4750E+5	1.0000E+0	9.9329E-6	1.0000E+0	3.7563E-12
2.4800E+5	1.0000E+0	9.9210E-6	1.0000E+0	3.7086E-12
2.4850E+5	1.0000E+0	9.9214E-6	1.0000E+0	3.7241E-12
2.4900E+5	1.0000E+0	9.9375E-6	1.0000E+0	3.5751E-12
2.4950E+5	1.0000E+0	9.9389E-6	1.0000E+0	3.6359E-12
2.5000E+5	1.0000E+0	9.9255E-6	1.0000E+0	3.6931E-12
2.5050E+5	1.0000E+0	9.9337E-6	1.0000E+0	3.6430E-12
2.5100E+5	1.0000E+0	9.9313E-6	1.0000E+0	3.5524E-12
2.5150E+5	1.0000E+0	9.9196E-6	1.0000E+0	3.5655E-12
2.5200E+5	1.0000E+0	9.9347E-6	1.0000E+0	3.6252E-12
2.5250E+5	1.0000E+0	9.8885E-6	1.0000E+0	3.6836E-12
2.5300E+5	1.0000E+0	9.8822E-6	1.0000E+0	3.6264E-12
2.5350E+5	1.0000E+0	9.8713E-6	1.0000E+0	3.5751E-12
2.5400E+5	1.0000E+0	9.8857E-6	1.0000E+0	3.6776E-12
2.5450E+5	1.0000E+0	9.8650E-6	1.0000E+0	3.8052E-12
2.5500E+5	1.0000E+0	9.8495E-6	1.0000E+0	3.7229E-12
2.5550E+5	1.0000E+0	9.8559E-6	1.0000E+0	3.6836E-12
2.5600E+5	1.0000E+0	9.8506E-6	1.0000E+0	3.6502E-12
2.5650E+5	1.0000E+0	9.8545E-6	1.0000E+0	3.7920E-12
2.5700E+5	1.0000E+0	9.8357E-6	1.0000E+0	3.6561E-12
2.5750E+5	1.0000E+0	9.8278E-6	1.0000E+0	3.6490E-12
2.5800E+5	1.0000E+0	9.8211E-6	1.0000E+0	3.7420E-12
2.5850E+5	1.0000E+0	9.8003E-6	1.0000E+0	3.7491E-12
2.5900E+5	1.0000E+0	9.8291E-6	1.0000E+0	3.7205E-12
2.5950E+5	1.0000E+0	9.7998E-6	1.0000E+0	3.6490E-12
2.6000E+5	1.0000E+0	9.7776E-6	1.0000E+0	3.7408E-12
2.6050E+5	1.0000E+0	9.7661E-6	1.0000E+0	3.6776E-12
2.6100E+5	1.0000E+0	9.7285E-6	1.0000E+0	3.7694E-12
2.6150E+5	1.0000E+0	9.7288E-6	1.0000E+0	3.6693E-12
2.6200E+5	1.0000E+0	9.7367E-6	1.0000E+0	3.7479E-12
2.6250E+5	1.0000E+0	9.7254E-6	1.0000E+0	3.7479E-12
2.6300E+5	1.0000E+0	9.7293E-6	1.0000E+0	3.7718E-12
2.6350E+5	1.0000E+0	9.7110E-6	1.0000E+0	3.6561E-12
2.6400E+5	1.0000E+0	9.7041E-6	1.0000E+0	3.6669E-12
2.6450E+5	1.0000E+0	9.7064E-6	1.0000E+0	3.6931E-12
2.6500E+5	1.0000E+0	9.6960E-6	1.0000E+0	3.8016E-12
2.6550E+5	1.0000E+0	9.6705E-6	1.0000E+0	3.7503E-12
2.6600E+5	1.0000E+0	9.6590E-6	1.0000E+0	3.7253E-12
2.6650E+5	1.0000E+0	9.6395E-6	1.0000E+0	3.7575E-12
2.6700E+5	1.0000E+0	9.6537E-6	1.0000E+0	3.6407E-12
2.6750E+5	1.0000E+0	9.6381E-6	1.0000E+0	3.6895E-12
2.6800E+5	1.0000E+0	9.6557E-6	1.0000E+0	3.7432E-12
2.6850E+5	1.0000E+0	9.6512E-6	1.0000E+0	3.7396E-12
2.6900E+5	1.0000E+0	9.6352E-6	1.0000E+0	3.7169E-12
2.6950E+5	1.0000E+0	9.6153E-6	1.0000E+0	3.6931E-12
2.7000E+5	1.0000E+0	9.6400E-6	1.0000E+0	3.7372E-12
2.7050E+5	1.0000E+0	9.6233E-6	1.0000E+0	3.7110E-12
2.7100E+5	1.0000E+0	9.6153E-6	1.0000E+0	3.6347E-12
2.7150E+5	1.0000E+0	9.5908E-6	1.0000E+0	3.7789E-12
2.7200E+5	1.0000E+0	9.6019E-6	1.0000E+0	3.7527E-12
2.7250E+5	1.0000E+0	9.6068E-6	1.0000E+0	3.6585E-12
2.7300E+5	1.0000E+0	9.5980E-6	1.0000E+0	3.7086E-12
2.7350E+5	1.0000E+0	9.5754E-6	1.0000E+0	3.6919E-12
2.7400E+5	1.0000E+0	9.5762E-6	1.0000E+0	3.7122E-12
2.7450E+5	1.0000E+0	9.5590E-6	1.0000E+0	3.5894E-12
2.7500E+5	1.0000E+0	9.5371E-6	1.0000E+0	3.6955E-12
2.7550E+5	1.0000E+0	9.5279E-6	1.0000E+0	3.6466E-12
2.7600E+5	1.0000E+0	9.5127E-6	1.0000E+0	3.5787E-12
2.7650E+5	1.0000E+0	9.5104E-6	1.0000E+0	3.6156E-12
2.7700E+5	1.0000E+0	9.4980E-6	1.0000E+0	3.5453E-12
2.7750E+5	1.0000E+0	9.5057E-6	1.0000E+0	3.5715E-12
2.7800E+5	1.0000E+0	9.5075E-6	1.0000E+0	3.5381E-12
2.7850E+5	1.0000E+0	9.4891E-6	1.0000E+0	3.6752E-12
2.7900E+5	1.0000E+0	9.4737E-6	1.0000E+0	3.6025E-12
2.7950E+5	1.0000E+0	9.4787E-6	1.0000E+0	3.5465E-12
2.8000E+5	1.0000E+0	9.4811E-6	1.0000E+0	3.5489E-12
2.8050E+5	1.0000E+0	9.4608E-6	1.0000E+0	3.5810E-12
2.8100E+5	1.0000E+0	9.4574E-6	1.0000E+0	3.4952E-12
2.8150E+5	1.0000E+0	9.4275E-6	1.0000E+0	3.5369E-12
2.8200E+5	1.0000E+0	9.4568E-6	1.0000E+0	3.4869E-12
2.8250E+5	1.0000E+0	9.4379E-6	1.0000E+0	3.4857E-12
2.8300E+5	1.0000E+0	9.4199E-6	1.0000E+0	3.5310E-12
2.8350E+5	1.0000E+0	9.4175E-6	1.0000E+0	3.4404E-12
2.8400E+5	1.0000E+0	9.4159E-6	1.0000E+0	3.4726E-12
2.8450E+5	1.0000E+0	9.4119E-6	1.0000E+0	3.6061E-12
2.8500E+5	1.0000E+0	9.4104E-6	1.0000E+0	3.5107E-12
2.8550E+5	1.0000E+0	9.4009E-6	1.0000E+0	3.5512E-12
2.8600E+5	1.0000E+0	9.4090E-6	1.0000E+0	3.4392E-12
2.8650E+5	1.0000E+0	9.4166E-6	1.0000E+0	3.4595E-12
2.8700E+5	1.0000E+0	9.4177E-6	1.0000E+0	3.4058E-12
2.8750E+5	1.0000E+0	9.4103E-6	1.0000E+0	3.5107E-12
2.8800E+5	1.0000E+0	9.4092E-6	1.0000E+0	3.5000E-12
2.8850E+5	1.0000E+0	9.3771E-6	1.0000E+0	3.4511E-12
2.8900E+5	1.0000E+0	9.3857E-6	1.0000E+0	3.4916E-12
2.8950E+5	1.0000E+0	9.3834E-6	1.0000E+0	3.4916E-12
2.9000E+5	1.0000E+0	9.3774E-6	1.0000E+0	3.4499E-12
2.9050E+5	1.0000E+0	9.3652E-6	1.0000E+0	3.4761E-12
2.9100E+5	1.0000E+0	9.3768E-6	1.0000E+0	3.6013E-12
2.9150E+5	1.0000E+0	9.3704E-6	1.0000E+0	3.5381E-12
2.9200E+5	1.0000E+0	9.3637E-6	1.0000E+0	3.4642E-12
2.9250E+5	1.0000E+0	9.3389E-6	1.0000E+0	3.5500E-12
2.9300E+5	1.0000E+0	9.3440E-6	1.0000E+0	3.5214E-12
2.9350E+5	1.0000E+0	9.3221E-6	1.0000E+0	3.5798E-12
2.9400E+5	1.0000E+0	9.3324E-6	1.0000E+0	3.7134E-12
2.9450E+5	1.0000E+0	9.3310E-6	1.0000E+0	3.5703E-12
2.9500E+5	1.0000E+0	9.3098E-6	1.0000E+0	3.6800E-12
2.9550E+5	1.0000E+0	9.2880E-6	1.0000E+0	3.6216E-12
2.9600E+5	1.0000E+0	9.2676E-6	1.0000E+0	3.6764E-12
2.9650E+5	1.0000E+0	9.2701E-6	1.0000E+0	3.7229E-12
2.9700E+5	1.0000E+0	9.2612E-6	1.0000E+0	3.7503E-12
2.9750E+5	1.0000E+0	9.2524E-6	1.0000E+0	3.6585E-12
2.9800E+5	1.0000E+0	9.2271E-6	1.0000E+0	3.7432E-12
2.9850E+5	1.0000E+0	9.2273E-6	1.0000E+0	3.6335E-12
2.9900E+5	1.0000E+0	9.2152E-6	1.0000E+0	3.8397E-12
2.9950E+5	1.0000E+0	9.2096E-6	1.0000E+0	3.7193E-12
3.0000E+5	1.0000E+0	9.2153E-6	1.0000E+0	3.7408E-12
3.0050E+5	1.0000E+0	9.2239E-6	1.0000E+0	3.6716E-12
3.0100E+5	1.0000E+0	9.2122E-6	1.0000E+0	3.7265E-12
3.0150E+5	1.0000E+0	9.2172E-6	1.0000E+0	3.7193E-12
3.0200E+5	1.0000E+0	9.2016E-6	1.0000E+0	3.7587E-12
3.0250E+5	1.0000E+0	9.1904E-6	1.0000E+0	3.7563E-12
3.0300E+5	1.0000E+0	9.1788E-6	1.0000E+0	3.7217E-12
3.0350E+5	1.0000E+0	9.1661E-6	1.0000E+0	3.6740E-12
3.0400E+5	1.0000E+0	9.1704E-6	1.0000E+0	3.6573E-12
3.0450E+5	1.0000E+0	9.1692E-6	1.0000E+0	3.5727E-12
3.0500E+5	1.0000E+0	9.1595E-6	1.0000E+0	3.6871E-12
3.0550E+5	1.0000E+0	9.1599E-6	1.0000E+0	3.7944E-12
3.0600E+5	1.0000E+0	9.1607E-6	1.0000E+0	3.6252E-12
3.0650E+5	1.0000E+0	9.1528E-6	1.0000E+0	3.7253E-12
3.0700E+5	1.0000E+0	9.1623E-6	1.0000E+0	3.7181E-12
3.0750E+5	1.0000E+0	9.1465E-6	1.0000E+0	3.7408E-12
3.0800E+5	1.0000E+0	9.1300E-6	1.0000E+0	3.6299E-12
3.0850E+5	1.0000E+0	9.1097E-6	1.0000E+0	3.5286E-12
3.0900E+5	1.0000E+0	9.1056E-6	1.0000E+0	3.7468E-12
3.0950E+5	1.0000E+0	9.1003E-6	1.0000E+0	3.5358E-12
3.1000E+5	1.0000E+0	9.1002E-6	1.0000E+0	3.4440E-12
3.1050E+5	1.0000E+0	9.1023E-6	1.0000E+0	3.5763E-12
3.1100E+5	1.0000E+0	9.1133E-6	1.0000E+0	3.5250E-12
3.1150E+5	1.0000E+0	9.0984E-6	1.0000E+0	3.5536E-12
3.1200E+5	1.0000E+0	9.1183E-6	1.0000E+0	3.5858E-12
3.1250E+5	1.0000E+0	9.0995E-6	1.0000E+0	3.5918E-12
3.1300E+5	1.0000E+0	9.0867E-6	1.0000E+0	3.5620E-12
3.1350E+5	1.0000E+0	9.0972E-6	1.0000E+0	3.6395E-12
3.1400E+5	1.0000E+0	9.0963E-6	1.0000E+0	3.4940E-12
3.1450E+5	1.0000E+0	9.0928E-6	1.0000E+0	3.4964E-12
3.1500E+5	1.0000E+0	9.0748E-6	1.0000E+0	3.5346E-12
3.1550E+5	1.0000E+0	9.0639E-6	1.0000E+0	3.4249E-12
3.1600E+5	1.0000E+0	9.0541E-6	1.0000E+0	3.3820E-12
3.1650E+5	1.0000E+0	9.0700E-6	1.0000E+0	3.3701E-12
3.1700E+5	1.0000E+0	9.0729E-6	1.0000E+0	3.4547E-12
3.1750E+5	1.0000E+0	9.0798E-6	1.0000E+0	3.3820E-12
3.1800E+5	1.0000E+0	9.0784E-6	1.0000E+0	3.4189E-12
3.1850E+5	1.0000E+0	9.0775E-6	1.0000E+0	3.4285E-12
3.1900E+5	1.0000E+0	9.0910E-6	1.0000E+0	3.4988E-12
3.1950E+5	1.0000E+0	9.0626E-6	1.0000E+0	3.6299E-12
3.2000E+5	1.0000E+0	9.0351E-6	1.0000E+0	3.7515E-12
3.2050E+5	1.0000E+0	9.0266E-6	1.0000E+0	3.5763E-12
3.2100E+5	1.0000E+0	9.0132E-6	1.0000E+0	3.5906E-12
3.2150E+5	1.0000E+0	9.0092E-6	1.0000E+0	3.5167E-12
3.2200E+5	1.0000E+0	8.9876E-6	1.0000E+0	3.5608E-12
3.2250E+5	1.0000E+0	8.9824E-6	1.0000E+0	3.5608E-12
3.2300E+5	1.0000E+0	8.9856E-6	1.0000E+0	3.5250E-12
3.2350E+5	1.0000E+0	8.9982E-6	1.0000E+0	3.5453E-12
3.2400E+5	1.0000E+0	8.9942E-6	1.0000E+0	3.6943E-12
3.2450E+5	1.0000E+0	9.0023E-6	1.0000E+0	3.6561E-12
3.2500E+5	1.0000E+0	8.9950E-6	1.0000E+0	3.6585E-12
3.2550E+5	1.0000E+0	8.9842E-6	1.0000E+0	3.7408E-12
3.2600E+5	1.0000E+0	8.9850E-6	1.0000E+0	3.6919E-12
3.2650E+5	1.0000E+0	8.9870E-6	1.0000E+0	3.6919E-12
3.2700E+5	1.0000E+0	8.9630E-6	1.0000E+0	3.7074E-12
3.2750E+5	1.0000E+0	8.9770E-6	1.0000E+0	3.6907E-12
3.2800E+5	1.0000E+0	8.9680E-6	1.0000E+0	3.7217E-12
3.2850E+5	1.0000E+0	8.9736E-6	1.0000E+0	3.6752E-12
3.2900E+5	1.0000E+0	8.9612E-6	1.0000E+0	3.8183E-12
3.2950E+5	1.0000E+0	8.9603E-6	1.0000E+0	3.7849E-12
3.3000E+5	1.0000E+0	8.9382E-6	1.0000E+0	3.7003E-12
3.3050E+5	1.0000E+0	8.9152E-6	1.0000E+0	3.6418E-12
3.3100E+5	1.0000E+0	8.9158E-6	1.0000E+0	3.6740E-12
3.3150E+5	1.0000E+0	8.9244E-6	1.0000E+0	3.8433E-12
3.3200E+5	1.0000E+0	8.9361E-6	1.0000E+0	3.8004E-12
3.3250E+5	1.0000E+0	8.9322E-6	1.0000E+0	3.6609E-12
3.3300E+5	1.0000E+0	8.9205E-6	1.0000E+0	3.7861E-12
3.3350E+5	1.0000E+0	8.9232E-6	1.0000E+0	3.7205E-12
3.3400E+5	1.0000E+0	8.9139E-6	1.0000E+0	3.6859E-12
3.3450E+5	1.0000E+0	8.9093E-6	1.0000E+0	3.7897E-12
3.3500E+5	1.0000E+0	8.8845E-6	1.0000E+0	3.6991E-12
3.3550E+5	1.0000E+0	8.8944E-6	1.0000E+0	3.7205E-12
3.3600E+5	1.0000E+0	8.8908E-6	1.0000E+0	3.6979E-12
3.3650E+5	1.0000E+0	8.8901E-6	1.0000E+0	3.6120E-12
3.3700E+5	1.0000E+0	8.8824E-6	1.0000E+0	3.6347E-12
3.3750E+5	1.0000E+0	8.8802E-6	1.0000E+0	3.5047E-12
3.3800E+5	1.0000E+0	8.8884E-6	1.0000E+0	3.6061E-12
3.3850E+5	1.0000E+0	8.8721E-6	1.0000E+0	3.5083E-12
3.3900E+5	1.0000E+0	8.8608E-6	1.0000E+0	3.5810E-12
3.3950E+5	1.0000E+0	8.8484E-6	1.0000E+0	3.5286E-12
3.4000E+5	1.0000E+0	8.8539E-6	1.0000E+0	3.5012E-12
3.4050E+5	1.0000E+0	8.8390E-6	1.0000E+0	3.5226E-12
3.4100E+5	1.0000E+0	8.8368E-6	1.0000E+0	3.5536E-12
3.4150E+5	1.0000E+0	8.8324E-6	1.0000E+0	3.4332E-12
3.4200E+5	1.0000E+0	8.8146E-6	1.0000E+0	3.6192E-12
3.4250E+5	1.0000E+0	8.7944E-6	1.0000E+0	3.4249E-12
3.4300E+5	1.0000E+0	8.7915E-6	1.0000E+0	3.4595E-12
3.4350E+5	1.0000E+0	8.7907E-6	1.0000E+0	3.4487E-12
3.4400E+5	1.0000E+0	8.7929E-6	1.0000E+0	3.5560E-12
3.4450E+5	1.0000E+0	8.7810E-6	1.0000E+0	3.4797E-12
3.4500E+5	1.0000E+0	8.7702E-6	1.0000E+0	3.4916E-12
3.4550E+5	1.0000E+0	8.7605E-6	1.0000E+0	3.4475E-12
3.4600E+5	1.0000E+0	8.7694E-6	1.0000E+0	3.5286E-12
3.4650E+5	1.0000E+0	8.7670E-6	1.0000E+0	3.6013E-12
3.4700E+5	1.0000E+0	8.7629E-6	1.0000E+0	3.5751E-12
3.4750E+5	1.0000E+0	8.7737E-6	1.0000E+0	3.5787E-12
3.4800E+5	1.0000E+0	8.7629E-6	1.0000E+0	3.5000E-12
3.4850E+5	1.0000E+0	8.7635E-6	1.0000E+0	3.6013E-12
3.4900E+5	1.0000E+0	8.7493E-6	1.0000E+0	3.5810E-12
3.4950E+5	1.0000E+0	8.7700E-6	1.0000E+0	3.5834E-12
3.5000E+5	1.0000E+0	8.7728E-6	1.0000E+0	3.5322E-12
3.5050E+5	1.0000E+0	8.7640E-6	1.0000E+0	3.4428E-12
3.5100E+5	1.0000E+0	8.7380E-6	1.0000E+0	3.5846E-12
3.5150E+5	1.0000E+0	8.7087E-6	1.0000E+0	3.6585E-12
3.5200E+5	1.0000E+0	8.7263E-6	1.0000E+0	3.6287E-12
3.5250E+5	1.0000E+0	8.7244E-6	1.0000E+0	3.5954E-12
3.5300E+5	1.0000E+0	8.7347E-6	1.0000E+0	3.6001E-12
3.5350E+5	1.0000E+0	8.7369E-6	1.0000E+0	3.5691E-12
3.5400E+5	1.0000E+0	8.7208E-6	1.0000E+0	3.5942E-12
3.5450E+5	1.0000E+0	8.7182E-6	1.0000E+0	3.5238E-12
3.5500E+5	1.0000E+0	8.6960E-6	1.0000E+0	3.6871E-12
3.5550E+5	1.0000E+0	8.7027E-6	1.0000E+0	3.5512E-12
3.5600E+5	1.0000E+0	8.6896E-6	1.0000E+0	3.6132E-12
3.5650E+5	1.0000E+0	8.6723E-6	1.0000E+0	3.6645E-12
3.5700E+5	1.0000E+0	8.6702E-6	1.0000E+0	3.6681E-12
3.5750E+5	1.0000E+0	8.6613E-6	1.0000E+0	3.7301E-12
3.5800E+5	1.0000E+0	8.6598E-6	1.0000E+0	3.7992E-12
3.5850E+5	1.0000E+0	8.6552E-6	1.0000E+0	3.8540E-12
3.5900E+5	1.0000E+0	8.6601E-6	1.0000E+0	3.7587E-12
3.5950E+5	1.0000E+0	8.6653E-6	1.0000E+0	3.7432E-12
3.6000E+5	1.0000E+0	8.6672E-6	1.0000E+0	3.6728E-12
3.6050E+5	1.0000E+0	8.6471E-6	1.0000E+0	3.6264E-12
3.6100E+5	1.0000E+0	8.6314E-6	1.0000E+0	3.6907E-12
3.6150E+5	1.0000E+0	8.6208E-6	1.0000E+0	3.5894E-12
3.6200E+5	1.0000E+0	8.6316E-6	1.0000E+0	3.7968E-12
3.6250E+5	1.0000E+0	8.6307E-6	1.0000E+0	3.8099E-12
3.6300E+5	1.0000E+0	8.6078E-6	1.0000E+0	3.6097E-12
3.6350E+5	1.0000E+0	8.5939E-6	1.0000E+0	3.5095E-12
3.6400E+5	1.0000E+0	8.5984E-6	1.0000E+0	3.6871E-12
3.6450E+5	1.0000E+0	8.5826E-6	1.0000E+0	1.4095E-10
3.6500E+5	1.0000E+0	8.5727E-6	1.0000E+0	2.0947E-10
3.6550E+5	1.0000E+0	8.5741E-6	1.0000E+0	2.0873E-10
3.6600E+5	1.0000E+0	8.5685E-6	1.0000E+0	2.0860E-10
3.6650E+5	1.0000E+0	8.5627E-6	1.0000E+0	2.0808E-10
3.6700E+5	1.0000E+0	8.5505E-6	1.0000E+0	2.0775E-10
3.6750E+5	1.0000E+0	8.5402E-6	1.0000E+0	2.0759E-10
3.6800E+5	1.0000E+0	8.5506E-6	1.0000E+0	2.0730E-10
3.6850E+5	1.0000E+0	8.5421E-6	1.0000E+0	2.0725E-10
3.6900E+5	1.0000E+0	8.5287E-6	1.0000E+0	2.0696E-10
3.6950E+5	1.0000E+0	8.5145E-6	1.0000E+0	2.0680E-10
3.7000E+5	1.0000E+0	8.5196E-6	1.0000E+0	2.0661E-10
3.7050E+5	1.0000E+0	8.5291E-6	1.0000E+0	2.0646E-10
3.7100E+5	1.0000E+0	8.5047E-6	1.0000E+0	2.0644E-10
3.7150E+5	1.0000E+0	8.4788E-6	1.0000E+0	2.0610E-10
3.7200E+5	1.0000E+0	8.4705E-6	1.0000E+0	2.0595E-10
3.7250E+5	1.0000E+0	8.4647E-6	1.0000E+0	2.0590E-10
3.7300E+5	1.0000E+0	8.4786E-6	1.0000E+0	2.0575E-10
3.7350E+5	1.0000E+0	8.4762E-6	1.0000E+0	2.0553E-10
3.7400E+5	1.0000E+0	8.4447E-6	1.0000E+0	2.0561E-10
3.7450E+5	1.0000E+0	8.4485E-6	1.0000E+0	1.3702E-10
3.7500E+5	1.0000E+0	8.4352E-6	1.0000E+0	1.0368E-11
3.7550E+5	1.0000E+0	8.4305E-6	1.0000E+0	4.2975E-12
3.7600E+5	1.0000E+0	8.4280E-6	1.0000E+0	3.7408E-12
3.7650E+5	1.0000E+0	8.4021E-6	1.0000E+0	3.4738E-12
3.7700E+5	1.0000E+0	8.4029E-6	1.0000E+0	3.4869E-12
3.7750E+5	1.0000E+0	8.3886E-6	1.0000E+0	3.4833E-12
3.7800E+5	1.0000E+0	8.3824E-6	1.0000E+0	3.4833E-12
3.7850E+5	1.0000E+0	8.3351E-6	1.0000E+0	3.6168E-12
3.7900E+5	1.0000E+0	8.3424E-6	1.0000E+0	3.4177E-12
3.7950E+5	1.0000E+0	8.3356E-6	1.0000E+0	3.4380E-12
3.8000E+5	1.0000E+0	8.3426E-6	1.0000E+0	3.4034E-12
3.8050E+5	1.0000E+0	8.3404E-6	1.0000E+0	3.4475E-12
3.8100E+5	1.0000E+0	8.3235E-6	1.0000E+0	3.3653E-12
3.8150E+5	1.0000E+0	8.3318E-6	1.0000E+0	3.3689E-12
3.8200E+5	1.0000E+0	8.3269E-6	1.0000E+0	3.3820E-12
3.8250E+5	1.0000E+0	8.3066E-6	1.0000E+0	3.3438E-12
3.8300E+5	1.0000E+0	8.3073E-6	1.0000E+0	3.3176E-12
3.8350E+5	1.0000E+0	8.3125E-6	1.0000E+0	3.3116E-12
3.8400E+5	1.0000E+0	8.2927E-6	1.0000E+0	3.4583E-12
3.8450E+5	1.0000E+0	8.2713E-6	1.0000E+0	1.1357E-10
3.8500E+5	1.0000E+0	8.2591E-6	1.0000E+0	2.0592E-10
3.8550E+5	1.0000E+0	8.2309E-6	1.0000E+0	2.0552E-10
3.8600E+5	1.0000E+0	8.2522E-6	1.0000E+0	2.0554E-10
3.8650E+5	1.0000E+0	8.2274E-6	1.0000E+0	2.0507E-10
3.8700E+5	1.0000E+0	8.2274E-6	1.0000E+0	2.0519E-10
3.8750E+5	1.0000E+0	8.2227E-6	1.0000E+0	2.0497E-10
3.8800E+5	1.0000E+0	8.2092E-6	1.0000E+0	2.0483E-10
3.8850E+5	1.0000E+0	8.2108E-6	1.0000E+0	2.0472E-10
3.8900E+5	1.0000E+0	8.1972E-6	1.0000E+0	2.0449E-10
3.8950E+5	1.0000E+0	8.2129E-6	1.0000E+0	2.0438E-10
3.9000E+5	1.0000E+0	8.1946E-6	1.0000E+0	2.0442E-10
3.9050E+5	1.0000E+0	8.1858E-6	1.0000E+0	2.0424E-10
3.9100E+5	1.0000E+0	8.1635E-6	1.0000E+0	2.0417E-10
3.9150E+5	1.0000E+0	8.1720E-6	1.0000E+0	2.0401E-10
3.9200E+5	1.0000E+0	8.1535E-6	1.0000E+0	2.0407E-10
3.9250E+5	1.0000E+0	8.1543E-6	1.0000E+0	2.0398E-10
3.9300E+5	1.0000E+0	8.1458E-6	1.0000E+0	2.0364E-10
3.9350E+5	1.0000E+0	8.1491E-6	1.0000E+0	2.0352E-10
3.9400E+5	1.0000E+0	8.1216E-6	1.0000E+0	2.0356E-10
3.9450E+5	1.0000E+0	8.0979E-6	1.0000E+0	1.5588E-10
3.9500E+5	1.0000E+0	8.0966E-6	1.0000E+0	1.1421E-11
3.9550E+5	1.0000E+0	8.0861E-6	1.0000E+0	4.2450E-12
3.9600E+5	1.0000E+0	8.0492E-6	1.0000E+0	3.8171E-12
3.9650E+5	1.0000E+0	8.0333E-6	1.0000E+0	3.4261E-12
3.9700E+5	1.0000E+0	8.0414E-6	1.0000E+0	3.4046E-12
3.9750E+5	1.0000E+0	8.0400E-6	1.0000E+0	3.4690E-12
3.9800E+5	1.0000E+0	8.0309E-6	1.0000E+0	3.5167E-12
3.9850E+5	1.0000E+0	8.0201E-6	1.0000E+0	3.3998E-12
3.9900E+5	1.0000E+0	8.0130E-6	1.0000E+0	3.5477E-12
3.9950E+5	1.0000E+0	8.0069E-6	1.0000E+0	3.5203E-12
4.0000E+5	1.0000E+0	8.0156E-6	1.0000E+0	3.5739E-12
4.0050E+5	1.0000E+0	8.0039E-6	1.0000E+0	3.3259E-12
4.0100E+5	1.0000E+0	7.9893E-6	1.0000E+0	3.6168E-12
4.0150E+5	1.0000E+0	7.9979E-6	1.0000E+0	3.4392E-12
4.0200E+5	1.0000E+0	7.9890E-6	1.0000E+0	3.4881E-12
4.0250E+5	1.0000E+0	7.9977E-6	1.0000E+0	3.6752E-12
4.0300E+5	1.0000E+0	7.9829E-6	1.0000E+0	3.6442E-12
4.0350E+5	1.0000E+0	7.9930E-6	1.0000E+0	3.4797E-12
4.0400E+5	1.0000E+0	7.9840E-6	1.0000E+0	3.6144E-12
4.0450E+5	1.0000E+0	7.9757E-6	1.0000E+0	8.8925E-11
4.0500E+5	1.0000E+0	7.9574E-6	1.0000E+0	2.0438E-10
4.0550E+5	1.0000E+0	7.9684E-6	1.0000E+0	2.0420E-10
4.0600E+5	1.0000E+0	7.9802E-6	1.0000E+0	2.0406E-10
4.0650E+5	1.0000E+0	7.9709E-6	1.0000E+0	2.0376E-10
4.0700E+5	1.0000E+0	7.9566E-6	1.0000E+0	2.0350E-10
4.0750E+5	1.0000E+0	7.9635E-6	1.0000E+0	2.0340E-10
4.0800E+5	1.0000E+0	7.9436E-6	1.0000E+0	2.0319E-10
4.0850E+5	1.0000E+0	7.9400E-6	1.0000E+0	2.0321E-10
4.0900E+5	1.0000E+0	7.9357E-6	1.0000E+0	2.0295E-10
4.0950E+5	1.0000E+0	7.9081E-6	1.0000E+0	2.0292E-10
4.1000E+5	1.0000E+0	7.8822E-6	1.0000E+0	2.0297E-10
4.1050E+5	1.0000E+0	7.8772E-6	1.0000E+0	2.0286E-10
4.1100E+5	1.0000E+0	7.8415E-6	1.0000E+0	2.0272E-10
4.1150E+5	1.0000E+0	7.8384E-6	1.0000E+0	2.0256E-10
4.1200E+5	1.0000E+0	7.8336E-6	1.0000E+0	2.0255E-10
4.1250E+5	1.0000E+0	7.8049E-6	1.0000E+0	2.0228E-10
4.1300E+5	1.0000E+0	7.7998E-6	1.0000E+0	2.0209E-10
4.1350E+5	1.0000E+0	7.7844E-6	1.0000E+0	2.0210E-10
4.1400E+5	1.0000E+0	7.7850E-6	1.0000E+0	2.0213E-10
4.1450E+5	1.0000E+0	7.7749E-6	1.0000E+0	1.7229E-10
4.1500E+5	1.0000E+0	7.7792E-6	1.0000E+0	1.2636E-11
4.1550E+5	1.0000E+0	7.7540E-6	1.0000E+0	4.5335E-12
4.1600E+5	1.0000E+0	7.7668E-6	1.0000E+0	3.6383E-12
4.1650E+5	1.0000E+0	7.7394E-6	1.0000E+0	3.6144E-12
4.1700E+5	1.0000E+0	7.7265E-6	1.0000E+0	3.5012E-12
4.1750E+5	1.0000E+0	7.7081E-6	1.0000E+0	3.3200E-12
4.1800E+5	1.0000E+0	7.7001E-6	1.0000E+0	3.3402E-12
4.1850E+5	1.0000E+0	7.7021E-6	1.0000E+0	3.4392E-12
4.1900E+5	1.0000E+0	7.7028E-6	1.0000E+0	3.2568E-12
4.1950E+5	1.0000E+0	7.6934E-6	1.0000E+0	3.4046E-12
4.2000E+5	1.0000E+0	7.6921E-6	1.0000E+0	3.4511E-12
4.2050E+5	1.0000E+0	7.6811E-6	1.0000E+0	3.4642E-12
4.2100E+5	1.0000E+0	7.6818E-6	1.0000E+0	3.4595E-12
4.2150E+5	1.0000E+0	7.6708E-6	1.0000E+0	3.6287E-12
4.2200E+5	1.0000E+0	7.6774E-6	1.0000E+0	3.4666E-12
4.2250E+5	1.0000E+0	7.6892E-6	1.0000E+0	3.4344E-12
4.2300E+5	1.0000E+0	7.6694E-6	1.0000E+0	3.3057E-12
4.2350E+5	1.0000E+0	7.6591E-6	1.0000E+0	3.4475E-12
4.2400E+5	1.0000E+0	7.6657E-6	1.0000E+0	3.5167E-12
4.2450E+5	1.0000E+0	7.6553E-6	1.0000E+0	8.3194E-11
4.2500E+5	1.0000E+0	7.6469E-6	1.0000E+0	2.0248E-10
4.2550E+5	1.0000E+0	7.6426E-6	1.0000E+0	2.0282E-10
4.2600E+5	1.0000E+0	7.6363E-6	1.0000E+0	2.0247E-10
4.2650E+5	1.0000E+0	7.6182E-6	1.0000E+0	2.0236E-10
4.2700E+5	1.0000E+0	7.6002E-6	1.0000E+0	2.0228E-10
4.2750E+5	1.0000E+0	7.5912E-6	1.0000E+0	2.0206E-10
4.2800E+5	1.0000E+0	7.5894E-6	1.0000E+0	2.0169E-10
4.2850E+5	1.0000E+0	7.5937E-6	1.0000E+0	2.0187E-10
4.2900E+5	1.0000E+0	7.5824E-6	1.0000E+0	2.0162E-10
4.2950E+5	1.0000E+0	7.5879E-6	1.0000E+0	2.0161E-10
4.3000E+5	1.0000E+0	7.5714E-6	1.0000E+0	2.0151E-10
4.3050E+5	1.0000E+0	7.5882E-6	1.0000E+0	2.0151E-10
4.3100E+5	1.0000E+0	7.5711E-6	1.0000E+0	2.0135E-10
4.3150E+5	1.0000E+0	7.5682E-6	1.0000E+0	2.0122E-10
4.3200E+5	1.0000E+0	7.5732E-6	1.0000E+0	2.0104E-10
4.3250E+5	1.0000E+0	7.5701E-6	1.0000E+0	2.0120E-10
4.3300E+5	1.0000E+0	7.5622E-6	1.0000E+0	2.0084E-10
4.3350E+5	1.0000E+0	7.5581E-6	1.0000E+0	2.0086E-10
4.3400E+5	1.0000E+0	7.5571E-6	1.0000E+0	2.0072E-10
4.3450E+5	1.0000E+0	7.5258E-6	1.0000E+0	1.8597E-10
4.3500E+5	1.0000E+0	7.5205E-6	1.0000E+0	1.3956E-11
4.3550E+5	1.0000E+0	7.5352E-6	1.0000E+0	4.4787E-12
4.3600E+5	1.0000E+0	7.5303E-6	1.0000E+0	3.4916E-12
4.3650E+5	1.0000E+0	7.5195E-6	1.0000E+0	3.3224E-12
4.3700E+5	1.0000E+0	7.5120E-6	1.0000E+0	3.3486E-12
4.3750E+5	1.0000E+0	7.5126E-6	1.0000E+0	3.4416E-12
4.3800E+5	1.0000E+0	7.4921E-6	1.0000E+0	3.4130E-12
4.3850E+5	1.0000E+0	7.4953E-6	1.0000E+0	3.3414E-12
4.3900E+5	1.0000E+0	7.4805E-6	1.0000E+0	3.3963E-12
4.3950E+5	1.0000E+0	7.4827E-6	1.0000E+0	3.3021E-12
4.4000E+5	1.0000E+0	7.4912E-6	1.0000E+0	3.2854E-12
4.4050E+5	1.0000E+0	7.4826E-6	1.0000E+0	3.2771E-12
4.4100E+5	1.0000E+0	7.4835E-6	1.0000E+0	3.3450E-12
4.4150E+5	1.0000E+0	7.4808E-6	1.0000E+0	3.3629E-12
4.4200E+5	1.0000E+0	7.4711E-6	1.0000E+0	3.3069E-12
4.4250E+5	1.0000E+0	7.4819E-6	1.0000E+0	3.3998E-12
4.4300E+5	1.0000E+0	7.4844E-6	1.0000E+0	3.2771E-12
4.4350E+5	1.0000E+0	7.4759E-6	1.0000E+0	3.4070E-12
4.4400E+5	1.0000E+0	7.4664E-6	1.0000E+0	3.3307E-12
4.4450E+5	1.0000E+0	7.4726E-6	1.0000E+0	3.2806E-12
4.4500E+5	1.0000E+0	7.4605E-6	1.0000E+0	3.2437E-12
4.4550E+5	1.0000E+0	7.4645E-6	1.0000E+0	3.3450E-12
4.4600E+5	1.0000E+0	7.4696E-6	1.0000E+0	3.3522E-12
4.4650E+5	1.0000E+0	7.4514E-6	1.0000E+0	3.2473E-12
4.4700E+5	1.0000E+0	7.4401E-6	1.0000E+0	3.3760E-12
4.4750E+5	1.0000E+0	7.4240E-6	1.0000E+0	3.3319E-12
4.4800E+5	1.0000E+0	7.4197E-6	1.0000E+0	3.3987E-12
4.4850E+5	1.0000E+0	7.4196E-6	1.0000E+0	3.4261E-12
4.4900E+5	1.0000E+0	7.4193E-6	1.0000E+0	3.4058E-12
4.4950E+5	1.0000E+0	7.3864E-6	1.0000E+0	3.3677E-12
4.5000E+5	1.0000E+0	7.3848E-6	1.0000E+0	3.3522E-12
4.5050E+5	1.0000E+0	7.3913E-6	1.0000E+0	3.3164E-12
4.5100E+5	1.0000E+0	7.3878E-6	1.0000E+0	3.4904E-12
4.5150E+5	1.0000E+0	7.3940E-6	1.0000E+0	3.3879E-12
4.5200E+5	1.0000E+0	7.3925E-6	1.0000E+0	3.4022E-12
4.5250E+5	1.0000E+0	7.3976E-6	1.0000E+0	3.2830E-12
4.5300E+5	1.0000E+0	7.3889E-6	1.0000E+0	3.3510E-12
4.5350E+5	1.0000E+0	7.3865E-6	1.0000E+0	3.4237E-12
4.5400E+5	1.0000E+0	7.3842E-6	1.0000E+0	3.4583E-12
4.5450E+5	1.0000E+0	7.3664E-6	1.0000E+0	3.3975E-12
4.5500E+5	1.0000E+0	7.3682E-6	1.0000E+0	3.5036E-12
4.5550E+5	1.0000E+0	7.3600E-6	1.0000E+0	3.4440E-12
4.5600E+5	1.0000E+0	7.3633E-6	1.0000E+0	3.6895E-12
4.5650E+5	1.0000E+0	7.3498E-6	1.0000E+0	3.5834E-12
4.5700E+5	1.0000E+0	7.3559E-6	1.0000E+0	3.6216E-12
4.5750E+5	1.0000E+0	7.3565E-6	1.0000E+0	3.4797E-12
4.5800E+5	1.0000E+0	7.3474E-6	1.0000E+0	3.6073E-12
4.5850E+5	1.0000E+0	7.3447E-6	1.0000E+0	3.6180E-12
4.5900E+5	1.0000E+0	7.3417E-6	1.0000E+0	3.5882E-12
4.5950E+5	1.0000E+0	7.3316E-6	1.0000E+0	3.6871E-12
4.6000E+5	1.0000E+0	7.3202E-6	1.0000E+0	3.6323E-12
4.6050E+5	1.0000E+0	7.3274E-6	1.0000E+0	3.6967E-12
4.6100E+5	1.0000E+0	7.3303E-6	1.0000E+0	3.5679E-12
4.6150E+5	1.0000E+0	7.3389E-6	1.0000E+0	3.4404E-12
4.6200E+5	1.0000E+0	7.3526E-6	1.0000E+0	3.5644E-12
4.6250E+5	1.0000E+0	7.3449E-6	1.0000E+0	3.4893E-12
4.6300E+5	1.0000E+0	7.3520E-6	1.0000E+0	3.5381E-12
4.6350E+5	1.0000E+0	7.3356E-6	1.0000E+0	3.5310E-12
4.6400E+5	1.0000E+0	7.3466E-6	1.0000E+0	3.4082E-12
4.6450E+5	1.0000E+0	7.3455E-6	1.0000E+0	3.4297E-12
4.6500E+5	1.0000E+0	7.3397E-6	1.0000E+0	3.4988E-12
4.6550E+5	1.0000E+0	7.3692E-6	1.0000E+0	3.5441E-12
4.6600E+5	1.0000E+0	7.3553E-6	1.0000E+0	3.5715E-12
4.6650E+5	1.0000E+0	7.3526E-6	1.0000E+0	3.5286E-12
4.6700E+5	1.0000E+0	7.3323E-6	1.0000E+0	3.6490E-12
4.6750E+5	1.0000E+0	7.3290E-6	1.0000E+0	3.4952E-12
4.6800E+5	1.0000E+0	7.3274E-6	1.0000E+0	3.5167E-12
