#scan	iMeasureCycle=1	iMux=0	time=0.139	N=482	LocalTime=31/10/2023 13:35:47
#VGate(V)	IGate(A)	time(s)	VDrain(V)	IDrain(A)	time(s)
-60	-5.28361E-09	0.299721	0.0999998	2.4716E-10	0.299721
-59.5001	-4.00232E-09	0.476716	0.0999999	2.1858E-10	0.476716
-59	-3.59098E-09	0.65338	0.0999999	1.5621E-10	0.65338
-58.5001	-3.04268E-09	0.84753	0.1	1.1914E-10	0.84753
-58.0001	-2.4824E-09	1.025338	0.1000004	9.08E-11	1.025338
-57.5	-2.35529E-09	1.201955	0.1000002	7.851E-11	1.201955
-57	-2.01447E-09	1.416497	0.1000003	7.267E-11	1.416497
-56.5001	-1.71713E-09	1.592985	0.1000003	5.851E-11	1.592985
-56	-1.56897E-09	1.769543	0.1000001	4.991E-11	1.769543
-55.5001	-1.43122E-09	1.948025	0.1000002	4.712E-11	1.948025
-55	-1.2599E-09	2.124627	0.0999999	4.024E-11	2.124627
-54.5	-1.23024E-09	2.301225	0.0999999	3.165E-11	2.301225
-54	-1.19558E-09	2.479698	0.0999999	3.649E-11	2.479698
-53.5	-1.07156E-09	2.656384	0.0999997	2.417E-11	2.656384
-53	-1.01261E-09	2.854114	0.0999997	2.301E-11	2.854114
-52.5001	-9.1563E-10	3.03064	0.0999996	2.209E-11	3.03064
-52.0001	-8.5167E-10	3.207058	0.1000002	1.753E-11	3.207058
-51.5001	-8.0984E-10	3.421347	0.1000004	1.009E-11	3.421347
-51.0001	-7.5894E-10	3.597914	0.0999998	4.4E-12	3.597914
-50.5	-7.1422E-10	3.774436	0.0999998	-1.41E-12	3.774436
-50	-6.5518E-10	3.95358	0.1000005	-2.028E-11	3.95358
-49.5	-5.8302E-10	4.13012	0.1000001	-4.698E-11	4.13012
-49	-4.6957E-10	4.306773	0.1000002	-1.193E-10	4.306773
-48.5	-3.6518E-10	4.485206	0.0999998	-2.0084E-10	4.485206
-48	-1.4578E-10	4.661715	0.1000002	-3.7857E-10	4.661715
-47.5	-4.501E-11	4.859659	0.0999998	-4.4456E-10	4.859659
-47	-5.941E-11	5.036182	0.0999997	-4.0413E-10	5.036182
-46.5	-1.5936E-10	5.212566	0.1000003	-2.7461E-10	5.212566
-46	-2.8421E-10	5.426236	0.0999999	-1.179E-10	5.426236
-45.5001	-2.8332E-10	5.602661	0.1	-1.0518E-10	5.602661
-45.0001	-2.768E-10	5.779143	0.0999998	-8.288E-11	5.779143
-44.5	-2.927E-10	5.955803	0.0999999	-4.976E-11	5.955803
-44.0001	-2.7823E-10	6.132328	0.1000001	-3.615E-11	6.132328
-43.5001	-2.8474E-10	6.308877	0.0999999	-2.088E-11	6.308877
-43.0001	-2.8094E-10	6.487182	0.1000003	-1.027E-11	6.487182
-42.5001	-2.595E-10	6.663677	0.0999999	-1.037E-11	6.663677
-42.0001	-2.5607E-10	6.864159	0.1	-4.57E-12	6.864159
-41.4999	-2.2932E-10	7.040718	0.0999997	-8.92E-12	7.040718
-41.0001	-2.3178E-10	7.217064	0.0999999	-4.72E-12	7.217064
-40.5001	-2.3121E-10	7.425649	0.0999998	-1.45E-12	7.425649
-40.0001	-2.2257E-10	7.60206	0.0999996	-2.53E-12	7.60206
-39.5	-2.2399E-10	7.778467	0.0999999	7E-13	7.778467
-39	-2.0889E-10	7.954949	0.0999997	-1.8E-13	7.954949
-38.5	-1.8655E-10	8.131277	0.1	-4.21E-12	8.131277
-38	-1.9797E-10	8.307601	0.0999997	4.09E-12	8.307601
-37.5	-1.7579E-10	8.485321	0.0999998	-4.05E-12	8.485321
-37	-1.8206E-10	8.661923	0.0999999	1.2E-12	8.661923
-36.5	-1.7521E-10	8.838311	0.1000001	2.54E-12	8.838311
-36.0001	-1.5185E-10	9.027069	0.1	-5.43E-12	9.027069
-35.5	-1.5428E-10	9.203276	0.1000003	-2.46E-12	9.203276
-35	-1.5916E-10	9.410804	0.0999999	9.6E-13	9.410804
-34.5001	-1.3413E-10	9.587262	0.1000001	-5.76E-12	9.587262
-34	-1.3945E-10	9.763518	0.0999996	6.9E-13	9.763518
-33.5	-1.227E-10	9.940964	0.1000003	-1.52E-12	9.940964
-33	-1.2585E-10	10.117291	0.1	1.61E-12	10.117291
-32.5	-1.215E-10	10.293503	0.1	2.7E-12	10.293503
-32	-1.1506E-10	10.470168	0.1	1.17E-12	10.470168
-31.5001	-1.011E-10	10.646523	0.1	-2.8E-13	10.646523
-31	-8.493E-11	10.822807	0.1000003	-2E-13	10.822807
-30.5001	-7.023E-11	11.001584	0.0999999	-5.97E-12	11.001584
-30.0001	-6.834E-11	11.177831	0.1000004	-4.12E-12	11.177831
-29.5001	-6.104E-11	11.377614	0.0999999	4.7E-13	11.377614
-29.0001	-4.012E-11	11.554021	0.0999999	-3.68E-12	11.554021
-28.5	-4.15E-11	11.73025	0.0999997	-2.06E-12	11.73025
-28	-3.873E-11	11.943788	0.1000001	-3.22E-12	11.943788
-27.5001	-3.375E-11	12.119995	0.0999998	9.3E-13	12.119995
-27	-2.185E-11	12.296157	0.0999999	-1.41E-12	12.296157
-26.5001	-1.627E-11	12.4727	0.1000003	-5.62E-12	12.4727
-26.0001	-2.163E-11	12.649033	0.0999997	-5.2E-13	12.649033
-25.5001	-7.35E-12	12.82533	0.1	-2.8E-12	12.82533
-25	-1.96E-12	13.001941	0.0999999	-1.36E-12	13.001941
-24.5	-4.1E-12	13.178197	0.1000002	2.75E-12	13.178197
-24	4.057E-11	13.354548	0.0999998	-1.227E-11	13.354548
-23.5001	3.859E-11	13.539449	0.1000002	-2.56E-12	13.539449
-23	3.777E-11	13.715626	0.0999999	3.67E-12	13.715626
-22.5	4.534E-11	13.92452	0.0999998	-2.76E-12	13.92452
-22	4.84E-11	14.100919	0.1	-4.3E-13	14.100919
-21.5001	6.902E-11	14.277271	0.1000001	2.16E-12	14.277271
-21.0001	1.0178E-10	14.454686	0.1000003	-2.57E-12	14.454686
-20.5001	1.1065E-10	14.630737	0.1000001	-2.47E-12	14.630737
-20	1.1653E-10	14.806914	0.0999999	2E-14	14.806914
-19.5	1.3397E-10	14.983268	0.1000001	-2.55E-12	14.983268
-19.0001	1.4555E-10	15.159352	0.0999998	-1.96E-12	15.159352
-18.5001	1.5428E-10	15.335455	0.1	-2.79E-12	15.335455
-18	1.629E-10	15.513909	0.0999998	-2.31E-12	15.513909
-17.5	1.9828E-10	15.690157	0.0999999	-6.96E-12	15.690157
-17	2.0025E-10	15.890192	0.1000003	3.54E-12	15.890192
-16.5	2.3948E-10	16.066371	0.1	-4.47E-12	16.066371
-16.0001	2.6733E-10	16.242484	0.1000001	2.98E-12	16.242484
-15.5001	2.8979E-10	16.456387	0.1000002	3.57E-12	16.456387
-15	3.2397E-10	16.63259	0.0999992	-2.61E-12	16.63259
-14.4999	3.1676E-10	16.808864	0.1000001	-3.6E-13	16.808864
-14	3.0604E-10	16.985038	0.0999993	1.044E-11	16.985038
-13.5001	3.4216E-10	17.161164	0.1000002	6.16E-12	17.161164
-13	4.1632E-10	17.337359	0.0999998	2.43E-12	17.337359
-12.5001	4.3522E-10	17.513606	0.1000001	7.82E-12	17.513606
-12.0001	5.1091E-10	17.689779	0.1000001	8.27E-12	17.689779
-11.5001	4.496E-10	17.865763	0.0999999	2.34E-12	17.865763
-11	2.8663E-10	18.051704	0.1000002	5.43E-12	18.051704
-10.5001	2.5262E-10	18.227672	0.0999999	7.64E-12	18.227672
-10	2.6038E-10	18.432942	0.0999999	5.8E-12	18.432942
-9.5001	2.7756E-10	18.609077	0.1000003	8.28E-12	18.609077
-9	2.8473E-10	18.785204	0.0999996	1.242E-11	18.785204
-8.5	3.0294E-10	18.967251	0.0999996	1.059E-11	18.967251
-8	3.1822E-10	19.143307	0.0999996	1.726E-11	19.143307
-7.5001	3.5796E-10	19.319343	0.1000001	1.355E-11	19.319343
-7.0001	3.3024E-10	19.495705	0.1000001	1.325E-11	19.495705
-6.5001	3.296E-10	19.67192	0.0999998	1.915E-11	19.67192
-6.0001	3.0588E-10	19.847932	0.0999996	2.707E-11	19.847932
-5.5001	3.1767E-10	20.025823	0.1000004	2.368E-11	20.025823
-5	3.088E-10	20.201885	0.1000004	3.233E-11	20.201885
-4.5001	3.2356E-10	20.402617	0.1000002	3.288E-11	20.402617
-4.0001	3.3135E-10	20.578704	0.1000002	4.195E-11	20.578704
-3.5001	3.5778E-10	20.75486	0.0999999	4.913E-11	20.75486
-3.0001	3.5049E-10	20.968592	0.0999999	5.321E-11	20.968592
-2.5	3.5137E-10	21.144756	0.1000005	5.521E-11	21.144756
-2.0001	3.6552E-10	21.320835	0.0999996	6.851E-11	21.320835
-1.5	3.7409E-10	21.497019	0.1	7.474E-11	21.497019
-1.0001	3.5904E-10	21.673329	0.0999998	9.345E-11	21.673329
-0.5	3.7622E-10	21.849345	0.1	1.0566E-10	21.849345
-0.0001	3.8711E-10	22.025617	0.0999997	1.1503E-10	22.025617
0.5	3.6704E-10	22.201654	0.1000004	1.3856E-10	22.201654
0.9999	3.734E-10	22.377832	0.1000003	1.4298E-10	22.377832
1.4999	3.8621E-10	22.564217	0.0999999	1.6025E-10	22.564217
2	3.6427E-10	22.740436	0.0999997	1.7753E-10	22.740436
2.5	3.7674E-10	22.949676	0.0999996	2.1065E-10	22.949676
2.9999	3.8541E-10	23.125859	0.1000004	2.358E-10	23.125859
3.5	3.9827E-10	23.301989	0.0999999	2.7585E-10	23.301989
3.9999	4.076E-10	23.479828	0.1000001	3.1284E-10	23.479828
4.4999	4.1827E-10	23.655835	0.0999994	3.4113E-10	23.655835
4.9999	4.2126E-10	23.831913	0.1	4.0698E-10	23.831913
5.4999	4.2224E-10	24.0082	0.1000001	4.7471E-10	24.0082
6	4.4169E-10	24.18432	0.1000004	5.023E-10	24.18432
6.4999	4.5944E-10	24.360405	0.0999998	5.7861E-10	24.360405
6.9999	4.4336E-10	24.53901	0.0999999	6.3515E-10	24.53901
7.4999	4.5488E-10	24.71526	0.1000001	7.5382E-10	24.71526
8	4.6339E-10	24.915199	0.1	8.1399E-10	24.915199
8.4999	4.8758E-10	25.091297	0.1	9.0668E-10	25.091297
8.9999	5.0232E-10	25.267246	0.0999996	9.3424E-10	25.267246
9.4999	4.956E-10	25.481379	0.1000003	1.08288E-09	25.481379
9.9999	4.8889E-10	25.657424	0.0999995	1.20268E-09	25.657424
10.5	5.1194E-10	25.833499	0.1000003	1.40139E-09	25.833499
11	5.5495E-10	26.009667	0.1	1.51368E-09	26.009667
11.5	5.6692E-10	26.185805	0.1000004	1.73587E-09	26.185805
11.9999	6.0362E-10	26.361927	0.0999998	1.8391E-09	26.361927
12.4999	6.078E-10	26.538462	0.0999998	2.09853E-09	26.538462
13	6.3519E-10	26.714593	0.1	2.32167E-09	26.714593
13.4999	6.4076E-10	26.890672	0.1	2.6103E-09	26.890672
13.9999	7.1538E-10	27.076798	0.1000004	2.84202E-09	27.076798
14.4999	7.1541E-10	27.252797	0.1000004	3.14685E-09	27.252797
15	7.0061E-10	27.462606	0.1000001	3.36692E-09	27.462606
15.5	7.1324E-10	27.63883	0.1000004	3.6835E-09	27.63883
16	7.1291E-10	27.814878	0.100001	4.05865E-09	27.814878
16.4999	7.0446E-10	27.992542	0.1000004	4.41566E-09	27.992542
17	7.7467E-10	28.168577	0.1000002	4.75841E-09	28.168577
17.4999	7.7734E-10	28.344574	0.1000001	5.25584E-09	28.344574
18	7.8973E-10	28.520986	0.0999999	5.50946E-09	28.520986
18.4999	7.9708E-10	28.69725	0.0999999	5.89964E-09	28.69725
19	7.8187E-10	28.873444	0.0999999	6.33167E-09	28.873444
19.5	8.3977E-10	29.052228	0.1000005	6.84634E-09	29.052228
19.9999	7.861E-10	29.228254	0.1000003	7.40946E-09	29.228254
20.5	7.862E-10	29.428757	0.100001	7.84984E-09	29.428757
21	8.4461E-10	29.604833	0.1000008	8.59899E-09	29.604833
21.4999	9.0237E-10	29.775137	0.0999995	9.2232E-09	29.775137
22	9.1335E-10	29.960894	0.0999999	9.7907E-09	29.960894
22.5	1.01409E-09	30.110873	0.1000007	1.05583E-08	30.110873
22.9999	1.02554E-09	30.260754	0.1000009	1.11952E-08	30.260754
23.5	1.11133E-09	30.445886	0.1	1.1934E-08	30.445886
24	1.09638E-09	30.616186	0.1000005	1.26438E-08	30.616186
24.5	1.13401E-09	30.766355	0.0999992	1.35888E-08	30.766355
24.9999	1.14675E-09	30.947322	0.100001	1.42784E-08	30.947322
25.4999	1.23215E-09	31.097307	0.0999997	1.52189E-08	31.097307
26	1.27516E-09	31.24723	0.1000006	1.60384E-08	31.24723
26.5	1.26134E-09	31.39725	0.0999996	1.69103E-08	31.39725
26.9999	1.31646E-09	31.564854	0.1000007	1.80248E-08	31.564854
27.4999	1.29403E-09	31.715063	0.0999991	1.88304E-08	31.715063
27.9999	1.40217E-09	31.865101	0.1000005	1.99694E-08	31.865101
28.5	1.48525E-09	32.015243	0.0999998	2.10789E-08	32.015243
28.9999	1.51126E-09	32.165299	0.0999996	2.19134E-08	32.165299
29.5	1.5096E-09	32.315263	0.0999997	2.30392E-08	32.315263
29.9999	1.47957E-09	32.478855	0.0999989	2.41236E-08	32.478855
30.5	1.52192E-09	32.628927	0.0999998	2.53113E-08	32.628927
30.9999	1.45061E-09	32.77907	0.1000001	2.62368E-08	32.77907
31.4999	1.57915E-09	32.954763	0.0999987	2.74272E-08	32.954763
31.9999	1.70235E-09	33.104801	0.1000012	2.85998E-08	33.104801
32.4999	1.60832E-09	33.254804	0.1000001	2.99418E-08	33.254804
32.9999	1.48799E-09	33.404901	0.0999999	3.14913E-08	33.404901
33.4999	1.61403E-09	33.568851	0.1000003	3.22543E-08	33.568851
34	1.80171E-09	33.718951	0.0999995	3.35079E-08	33.718951
34.4999	1.67317E-09	33.86899	0.1000004	3.4693E-08	33.86899
35	1.50386E-09	34.019233	0.100001	3.59887E-08	34.019233
35.4999	1.40594E-09	34.169316	0.1000011	3.73546E-08	34.169316
36	1.43687E-09	34.319353	0.1000003	3.87274E-08	34.319353
36.4999	1.39647E-09	34.483798	0.1000015	3.97414E-08	34.483798
37	1.47423E-09	34.63393	0.0999997	4.15022E-08	34.63393
37.4999	1.47006E-09	34.784001	0.1000004	4.26192E-08	34.784001
37.9999	1.61458E-09	34.95967	0.1	4.37651E-08	34.95967
38.4999	1.66302E-09	35.109776	0.1000002	4.53204E-08	35.109776
38.9999	1.90987E-09	35.259907	0.1000002	4.68688E-08	35.259907
39.4999	1.99159E-09	35.410074	0.1000016	4.83928E-08	35.410074
39.9999	1.9303E-09	35.573946	0.1000004	4.95724E-08	35.573946
40.4999	1.86886E-09	35.724303	0.0999993	5.10355E-08	35.724303
40.9999	1.88775E-09	35.874333	0.0999995	5.26364E-08	35.874333
41.5	1.82963E-09	36.024627	0.0999993	5.37655E-08	36.024627
42	1.78305E-09	36.174801	0.0999994	5.58873E-08	36.174801
42.4999	1.68017E-09	36.324963	0.0999975	5.70818E-08	36.324963
42.9999	1.60799E-09	36.489042	0.1000001	5.83915E-08	36.489042
43.5	1.62504E-09	36.639381	0.0999993	5.99485E-08	36.639381
43.9999	1.66895E-09	36.789593	0.0999994	6.13912E-08	36.789593
44.4999	1.59029E-09	36.973578	0.1000013	6.32665E-08	36.973578
45	1.6218E-09	37.123937	0.1000002	6.47704E-08	37.123937
45.4999	1.57498E-09	37.274076	0.0999997	6.62808E-08	37.274076
46	1.51482E-09	37.449076	0.1000004	6.76077E-08	37.449076
46.5	1.60383E-09	37.599334	0.0999998	6.91941E-08	37.599334
46.9999	1.5188E-09	37.749554	0.0999986	7.10312E-08	37.749554
47.5	1.49413E-09	37.899793	0.0999999	7.31282E-08	37.899793
48	1.48858E-09	38.051882	0.1000007	7.41835E-08	38.051882
48.4999	1.40054E-09	38.202134	0.0999968	7.60151E-08	38.202134
48.9999	1.37992E-09	38.352344	0.1	7.74595E-08	38.352344
49.4999	1.45212E-09	38.502616	0.1000009	7.88532E-08	38.502616
50	1.43012E-09	38.652915	0.099999	8.0746E-08	38.652915
50.4999	1.37568E-09	38.803209	0.1000001	8.16967E-08	38.803209
51	1.36475E-09	38.991986	0.0999992	8.41124E-08	38.991986
51.4999	1.5309E-09	39.142428	0.1000004	8.55523E-08	39.142428
52	1.55145E-09	39.29272	0.0999986	8.67185E-08	39.29272
52.4999	1.51169E-09	39.470323	0.0999996	8.83154E-08	39.470323
52.9999	1.56545E-09	39.620671	0.0999989	9.0782E-08	39.620671
53.4999	1.50475E-09	39.771034	0.1000003	9.19535E-08	39.771034
53.9999	1.47202E-09	39.921233	0.0999988	9.41271E-08	39.921233
54.5	1.48358E-09	40.085197	0.1000006	9.55928E-08	40.085197
55	1.52269E-09	40.235472	0.1000001	9.72838E-08	40.235472
55.5	1.57908E-09	40.385768	0.1000009	9.84105E-08	40.385768
55.9999	1.53112E-09	40.536057	0.1000014	1.000867E-07	40.536057
56.4999	1.58699E-09	40.686456	0.0999985	1.020445E-07	40.686456
56.9999	1.64849E-09	40.836768	0.1000009	1.036746E-07	40.836768
57.4999	1.59573E-09	41.003223	0.0999999	1.05144E-07	41.003223
57.9999	1.57689E-09	41.153668	0.1000001	1.06246E-07	41.153668
58.5	1.55871E-09	41.303982	0.1	1.07929E-07	41.303982
58.9999	1.56497E-09	41.493781	0.0999999	1.10077E-07	41.493781
59.5	1.50927E-09	41.644226	0.1	1.11967E-07	41.644226
59.9999	1.58863E-09	41.794571	0.1	1.13739E-07	41.794571
59.9999	1.41025E-09	41.9169	0.1000001	1.12271E-07	41.9169
59.5	1.12578E-09	42.090488	0.0999999	1.10301E-07	42.090488
58.9999	9.279E-10	42.240731	0.0999999	1.08807E-07	42.240731
58.5	8.0727E-10	42.391142	0.1000001	1.06671E-07	42.391142
57.9999	7.3192E-10	42.5416	0.1	1.04481E-07	42.5416
57.5	6.4542E-10	42.691974	0.0999999	1.02292E-07	42.691974
57	5.8966E-10	42.842312	0.1000002	1.0069E-07	42.842312
56.5	5.4357E-10	43.006394	0.0999999	9.8403E-08	43.006394
55.9999	4.9185E-10	43.156813	0.0999999	9.7285E-08	43.156813
55.5	4.5376E-10	43.307019	0.1000001	9.5355E-08	43.307019
55	4.3402E-10	43.49513	0.0999999	9.3459E-08	43.49513
54.5	3.9415E-10	43.645394	0.0999999	9.1095E-08	43.645394
54	3.5443E-10	43.795785	0.1	8.8772E-08	43.795785
53.5	3.4575E-10	43.997484	0.0999997	8.60708E-08	43.997484
53	3.2946E-10	44.170441	0.0999995	8.48662E-08	44.170441
52.4999	3.0507E-10	44.343387	0.0999992	8.29007E-08	44.343387
51.9999	2.9187E-10	44.535043	0.0999989	8.13331E-08	44.535043
51.4999	2.4514E-10	44.70827	0.1000001	7.92597E-08	44.70827
51	1.7425E-10	44.881354	0.1000002	7.67525E-08	44.881354
50.4999	9.201E-11	45.054451	0.1000014	7.45384E-08	45.054451
49.9999	-1.0422E-10	45.225206	0.0999997	7.25163E-08	45.225206
49.4999	-2.5483E-10	45.395712	0.1000007	7.06526E-08	45.395712
49	-1.7003E-10	45.566451	0.099998	6.9031E-08	45.566451
48.5	-2.3632E-10	45.716729	0.0999985	6.75911E-08	45.716729
48	-4.5944E-10	45.88726	0.1000013	6.53345E-08	45.88726
47.5	-5.7188E-10	46.057925	0.0999988	6.36142E-08	46.057925
47	-8.822E-10	46.228407	0.0999994	6.2018E-08	46.228407
46.4999	-8.8763E-10	46.398985	0.1000012	5.97703E-08	46.398985
46	-6.1312E-10	46.571617	0.1	5.7313E-08	46.571617
45.5	-5.6892E-10	46.742225	0.1000009	5.54757E-08	46.742225
44.9999	-4.5798E-10	46.912671	0.1	5.36531E-08	46.912671
44.4999	-4.4933E-10	47.083299	0.0999997	5.20574E-08	47.083299
44	-3.3668E-10	47.2538	0.1000017	5.01163E-08	47.2538
43.5	-5.1284E-10	47.424297	0.0999994	4.79284E-08	47.424297
42.9999	-4.2124E-10	47.597092	0.0999996	4.65164E-08	47.597092
42.4999	-4.0939E-10	47.767604	0.1000012	4.49999E-08	47.767604
42	-4.0193E-10	47.917796	0.1000009	4.34091E-08	47.917796
41.5	-5.3196E-10	48.089137	0.0999991	4.08781E-08	48.089137
40.9999	-4.6115E-10	48.239319	0.1000013	3.90953E-08	48.239319
40.5	-3.5389E-10	48.389444	0.1000001	3.74743E-08	48.389444
40	-4.9962E-10	48.560281	0.0999964	3.62684E-08	48.560281
39.5	-4.0549E-10	48.71051	0.1000009	3.41944E-08	48.71051
39	-3.2075E-10	48.880948	0.0999999	3.23976E-08	48.880948
38.4999	-4.0741E-10	49.051426	0.0999992	3.08309E-08	49.051426
38	-4.8696E-10	49.20152	0.0999988	2.92018E-08	49.20152
37.5	-3.4149E-10	49.351713	0.0999973	2.76261E-08	49.351713
37	-4.394E-10	49.543705	0.1000011	2.58878E-08	49.543705
36.5	-6.2305E-10	49.693796	0.0999996	2.44159E-08	49.693796
36	-6.4111E-10	49.843816	0.1000004	2.26989E-08	49.843816
35.5	-5.71E-10	50.024099	0.1	2.12686E-08	50.024099
34.9999	-4.1676E-10	50.174379	0.0999992	1.96899E-08	50.174379
34.4999	-6.2503E-10	50.344716	0.1000014	1.7935E-08	50.344716
34	-3.9671E-10	50.525718	0.1000007	1.64476E-08	50.525718
33.4999	-6.2137E-10	50.675937	0.1000007	1.51882E-08	50.675937
32.9999	-5.6181E-10	50.846395	0.0999986	1.42211E-08	50.846395
32.5	-4.3696E-10	51.027292	0.0999991	1.29895E-08	51.027292
32	-6.1747E-10	51.177479	0.0999995	1.16377E-08	51.177479
31.5	-6.518E-10	51.327441	0.1000011	1.05485E-08	51.327441
31	-2.7371E-10	51.511557	0.099999	9.5104E-09	51.511557
30.4999	-2.857E-10	51.676481	0.1000009	8.44047E-09	51.676481
30	-4.3503E-10	51.852681	0.1000007	7.70151E-09	51.852681
29.4999	-5.8483E-10	52.055783	0.0999996	6.81206E-09	52.055783
29	-6.4565E-10	52.232025	0.0999998	6.31675E-09	52.232025
28.5	-4.305E-10	52.408221	0.0999991	5.50713E-09	52.408221
27.9999	-6.974E-10	52.584681	0.1000008	4.9498E-09	52.584681
27.4999	-3.682E-10	52.761121	0.0999996	4.30588E-09	52.761121
27	-4.2557E-10	52.937342	0.1000002	3.76641E-09	52.937342
26.4999	-5.7218E-10	53.115605	0.1000002	3.24832E-09	53.115605
25.9999	-5.7723E-10	53.291932	0.1000006	3.01494E-09	53.291932
25.5	-4.5139E-10	53.490566	0.1000003	2.58431E-09	53.490566
24.9999	-6.9528E-10	53.666941	0.1000002	2.21514E-09	53.666941
24.5	-5.707E-10	53.843114	0.0999994	1.94326E-09	53.843114
24	-3.7212E-10	54.058313	0.1000005	1.66923E-09	54.058313
23.4999	-6.6156E-10	54.234501	0.0999998	1.47818E-09	54.234501
23	-5.8235E-10	54.410708	0.0999993	1.20375E-09	54.410708
22.5	-6.178E-10	54.587063	0.0999996	1.09946E-09	54.587063
22	-5.8962E-10	54.763333	0.1000004	9.1515E-10	54.763333
21.4999	-4.1787E-10	54.939669	0.0999999	8.0549E-10	54.939669
21	-4.7417E-10	55.116	0.1000005	6.9862E-10	55.116
20.5	-4.0293E-10	55.2921	0.1000003	5.7948E-10	55.2921
20	-5.3641E-10	55.468187	0.0999995	5.2838E-10	55.468187
19.4999	-5.8076E-10	55.653129	0.1000001	4.5827E-10	55.653129
18.9999	-4.3766E-10	55.829204	0.1000001	4.0311E-10	55.829204
18.4999	-4.0008E-10	56.039436	0.1000005	3.3121E-10	56.039436
18	-6.2156E-10	56.215688	0.1	2.8933E-10	56.215688
17.5	-4.5489E-10	56.391692	0.0999987	2.572E-10	56.391692
16.9999	-3.9412E-10	56.568968	0.0999996	2.1185E-10	56.568968
16.4999	-6.3921E-10	56.745082	0.1000001	1.8674E-10	56.745082
16	-7.1347E-10	56.921314	0.1000001	1.5698E-10	56.921314
15.4999	-9.8486E-10	57.097679	0.0999996	1.3254E-10	57.097679
14.9999	-7.4885E-10	57.273739	0.0999999	1.1774E-10	57.273739
14.5	-4.9448E-10	57.449944	0.0999998	9.486E-11	57.449944
14	-8.9928E-10	57.626065	0.1000003	8.126E-11	57.626065
13.4999	-6.7635E-10	57.802206	0.0999996	6.526E-11	57.802206
13	-7.7079E-10	57.978247	0.1	5.715E-11	57.978247
12.4999	-8.7146E-10	58.162205	0.1000006	5.834E-11	58.162205
12	-8.3577E-10	58.3382	0.1000005	4.758E-11	58.3382
11.4999	-7.3732E-10	58.54816	0.1	4.391E-11	58.54816
10.9999	-7.7983E-10	58.724355	0.0999999	3.804E-11	58.724355
10.4999	-7.802E-10	58.90042	0.0999999	3.124E-11	58.90042
10	-7.9638E-10	59.078274	0.1000002	2.663E-11	59.078274
9.4999	-8.1161E-10	59.254426	0.0999997	2.142E-11	59.254426
9	-8.7711E-10	59.430498	0.0999999	1.84E-11	59.430498
8.4999	-7.7148E-10	59.608931	0.1000005	2.291E-11	59.608931
7.9999	-7.6702E-10	59.785252	0.1000005	1.234E-11	59.785252
7.5	-7.1657E-10	59.961259	0.1000003	9.04E-12	59.961259
6.9999	-7.079E-10	60.139195	0.0999998	8.81E-12	60.139195
6.5	-6.3225E-10	60.315238	0.1	1.082E-11	60.315238
6	-6.2972E-10	60.512081	0.1000001	8.91E-12	60.512081
5.5	-6.392E-10	60.688181	0.0999997	1.066E-11	60.688181
5	-5.9789E-10	60.864491	0.0999994	9.1E-12	60.864491
4.5	-5.1667E-10	61.080314	0.1	6.52E-12	61.080314
4	-5.8765E-10	61.256401	0.0999999	1.26E-11	61.256401
3.4999	-5.9566E-10	61.432377	0.0999997	3.49E-12	61.432377
2.9999	-5.6752E-10	61.608761	0.0999998	6.42E-12	61.608761
2.5	-5.5407E-10	61.7849	0.0999999	5.19E-12	61.7849
2	-5.5002E-10	61.960884	0.0999998	3.57E-12	61.960884
1.4999	-5.3447E-10	62.137339	0.1000004	-2.57E-12	62.137339
0.9999	-5.4927E-10	62.313357	0.0999999	5.89E-12	62.313357
0.4999	-5.5378E-10	62.489749	0.0999999	2.31E-12	62.489749
-0.0001	-5.7146E-10	62.689754	0.1	3.3E-12	62.689754
-0.5	-5.7479E-10	62.865846	0.1000005	4.22E-12	62.865846
-1.0001	-5.4795E-10	63.078651	0.1	4.8E-12	63.078651
-1.5001	-5.0993E-10	63.254837	0.0999997	3.1E-13	63.254837
-2.0001	-4.9517E-10	63.431003	0.1	4.87E-12	63.431003
-2.5001	-5.1977E-10	63.607346	0.1000004	4.84E-12	63.607346
-3.0001	-6.0749E-10	63.783496	0.0999998	2.97E-12	63.783496
-3.5001	-5.3387E-10	63.959502	0.0999998	8.9E-13	63.959502
-4.0001	-5.5078E-10	64.137924	0.0999998	-1.44E-12	64.137924
-4.5	-5.5217E-10	64.31396	0.1	5.04E-12	64.31396
-5.0001	-5.6076E-10	64.490073	0.1000001	4.02E-12	64.490073
-5.5001	-5.1644E-10	64.679355	0.1000001	-1.6E-12	64.679355
-6	-5.7106E-10	64.855503	0.0999998	9.39E-12	64.855503
-6.5001	-4.5891E-10	65.066719	0.1000004	-1.02E-12	65.066719
-7	-5.5017E-10	65.242841	0.0999998	3.19E-12	65.242841
-7.5001	-5.591E-10	65.418874	0.1	8.2E-13	65.418874
-8.0001	-5.4485E-10	65.596531	0.1000002	4.24E-12	65.596531
-8.5001	-5.4966E-10	65.772556	0.1	3.05E-12	65.772556
-9.0001	-5.7264E-10	65.948644	0.1	6.67E-12	65.948644
-9.5001	-5.6538E-10	66.124958	0.0999999	5.49E-12	66.124958
-10.0001	-5.7243E-10	66.301019	0.1000001	2.01E-12	66.301019
-10.5	-5.853E-10	66.477138	0.0999998	6.21E-12	66.477138
-11	-5.9806E-10	66.653283	0.1000003	4.49E-12	66.653283
-11.5	-5.6353E-10	66.829603	0.1000008	4.37E-12	66.829603
-12.0001	-5.6424E-10	67.005616	0.1000002	2.34E-12	67.005616
-12.5001	-5.5662E-10	67.188377	0.1000002	2.54E-12	67.188377
-13.0001	-5.6696E-10	67.364333	0.0999999	1.18E-12	67.364333
-13.5001	-5.0255E-10	67.576115	0.0999997	-2.09E-12	67.576115
-14	-5.6086E-10	67.752248	0.1000002	4.19E-12	67.752248
-14.5001	-5.8016E-10	67.928295	0.0999998	1.69E-12	67.928295
-15	-5.6702E-10	68.105774	0.0999998	2.78E-12	68.105774
-15.5	-5.9327E-10	68.281987	0.0999997	4.04E-12	68.281987
-16.0001	-5.9369E-10	68.458131	0.1000001	-4.6E-13	68.458131
-16.5001	-5.9831E-10	68.634408	0.1000001	5.1E-12	68.634408
-17	-5.8525E-10	68.810653	0.0999997	-2.29E-12	68.810653
-17.5	-5.6191E-10	68.986775	0.1	4.85E-12	68.986775
-18	-5.9381E-10	69.163167	0.1000003	5.93E-12	69.163167
-18.5001	-6.1E-10	69.339276	0.0999995	-1.5E-12	69.339276
-19.0001	-5.5646E-10	69.539476	0.1000001	3.3E-13	69.539476
-19.5	-5.8583E-10	69.715648	0.1	6.8E-13	69.715648
-20.0001	-6.5638E-10	69.891841	0.0999998	3.08E-12	69.891841
-20.5	-6.1785E-10	70.107456	0.1	4.32E-12	70.107456
-21.0001	-6.7797E-10	70.283767	0.0999998	3.72E-12	70.283767
-21.5001	-6.3864E-10	70.45988	0.0999998	4.66E-12	70.45988
-22.0001	-5.7448E-10	70.636256	0.1	3.39E-12	70.636256
-22.5	-5.9607E-10	70.812655	0.1	3.09E-12	70.812655
-23.0001	-6.2122E-10	70.989013	0.0999995	2.83E-12	70.989013
-23.5001	-6.1134E-10	71.165651	0.0999995	-2E-14	71.165651
-24	-6.2299E-10	71.341974	0.0999999	3.16E-12	71.341974
-24.5	-6.392E-10	71.518219	0.1	8.8E-13	71.518219
-25	-7.2061E-10	71.701341	0.0999999	2.84E-12	71.701341
-25.5	-6.5553E-10	71.877557	0.0999999	3.17E-12	71.877557
-26	-5.7372E-10	72.088707	0.1000002	1.74E-12	72.088707
-26.5001	-6.0221E-10	72.264996	0.1	4.76E-12	72.264996
-27.0001	-6.8592E-10	72.44122	0.1	3.8E-12	72.44122
-27.5	-7.1677E-10	72.618508	0.0999998	7.7E-12	72.618508
-28	-6.7105E-10	72.794702	0.0999998	1.616E-11	72.794702
-28.5001	-6.3362E-10	72.970952	0.0999999	3.615E-11	72.970952
-29.0001	-7.2944E-10	73.149827	0.0999999	6.895E-11	73.149827
-29.5001	-7.7212E-10	73.32612	0.1000002	8.962E-11	73.32612
-30.0001	-8.182E-10	73.502436	0.1	9.533E-11	73.502436
-30.5001	-8.7273E-10	73.680989	0.1	1.1893E-10	73.680989
-31.0001	-8.0068E-10	73.857334	0.1000006	1.2593E-10	73.857334
-31.5	-7.4375E-10	74.052995	0.0999996	1.2492E-10	74.052995
-32.0001	-7.8013E-10	74.229419	0.1000003	1.4553E-10	74.229419
-32.5001	-8.6061E-10	74.405677	0.1000001	1.476E-10	74.405677
-33.0001	-6.9134E-10	74.621464	0.0999998	1.2329E-10	74.621464
-33.5001	-8.4325E-10	74.797832	0.1	1.6179E-10	74.797832
-34.0001	-8.4086E-10	74.974201	0.0999999	1.7198E-10	74.974201
-34.5	-8.5683E-10	75.150655	0.1000004	1.8417E-10	75.150655
-35	-8.3385E-10	75.327084	0.1000001	1.7735E-10	75.327084
-35.5	-8.8195E-10	75.503403	0.1	1.8717E-10	75.503403
-36.0001	-8.8285E-10	75.679802	0.0999997	1.8562E-10	75.679802
-36.5	-9.2E-10	75.856226	0.1000001	1.8944E-10	75.856226
-37	-8.5491E-10	76.032683	0.1000002	1.6203E-10	76.032683
-37.5	-8.529E-10	76.214964	0.1000001	1.5977E-10	76.214964
-38.0001	-8.0073E-10	76.391185	0.0999999	1.5202E-10	76.391185
-38.5001	-8.4089E-10	76.602257	0.1	1.3466E-10	76.602257
-39	-8.3178E-10	76.778774	0.0999998	1.2933E-10	76.778774
-39.5	-7.9966E-10	76.955217	0.0999999	1.3939E-10	76.955217
-40.0001	-8.7431E-10	77.131615	0.1	1.2461E-10	77.131615
-40.5001	-8.6198E-10	77.308047	0.1000002	1.1854E-10	77.308047
-41.0001	-8.2262E-10	77.484344	0.1000002	1.3179E-10	77.484344
-41.5001	-8.5121E-10	77.660847	0.1	1.2473E-10	77.660847
-42.0001	-8.9997E-10	77.837509	0.1	1.2833E-10	77.837509
-42.5	-9.0633E-10	78.013797	0.1000001	1.082E-10	78.013797
-43.0001	-1.02437E-09	78.192496	0.1000002	1.0975E-10	78.192496
-43.5	-9.7884E-10	78.368877	0.0999997	1.1136E-10	78.368877
-44	-9.2472E-10	78.565672	0.0999996	1.0775E-10	78.565672
-44.5001	-1.02299E-09	78.742204	0.0999999	1.0509E-10	78.742204
-45.0001	-9.9497E-10	78.918667	0.1	9.906E-11	78.918667
-45.5001	-9.0527E-10	79.134826	0.1000001	9.271E-11	79.134826
-46	-9.1004E-10	79.31145	0.1000001	8.659E-11	79.31145
-46.5	-9.6394E-10	79.488019	0.0999995	8.632E-11	79.488019
-47	-9.5894E-10	79.664653	0.0999999	1.0304E-10	79.664653
-47.5001	-9.4213E-10	79.841262	0.0999997	9.878E-11	79.841262
-48	-9.8876E-10	80.017783	0.1000001	9.335E-11	80.017783
-48.5001	-9.8014E-10	80.194375	0.1000002	9.719E-11	80.194375
-49.0001	-9.3397E-10	80.370863	0.0999999	1.091E-10	80.370863
-49.5001	-1.04615E-09	80.547382	0.0999999	1.0703E-10	80.547382
-50	-9.7109E-10	80.730725	0.0999998	1.0906E-10	80.730725
-50.5001	-1.00898E-09	80.907301	0.0999995	1.2494E-10	80.907301
-51	-9.6905E-10	81.117248	0.0999999	9.345E-11	81.117248
-51.5	-1.04281E-09	81.293916	0.0999999	1.0457E-10	81.293916
-52	-1.07086E-09	81.470376	0.1	1.3953E-10	81.470376
-52.5001	-9.5934E-10	81.647784	0.0999996	1.1369E-10	81.647784
-53.0001	-1.12117E-09	81.824445	0.1	1.311E-10	81.824445
-53.5001	-1.14183E-09	82.001051	0.0999999	1.5846E-10	82.001051
-54.0001	-1.10455E-09	82.178189	0.1000003	1.991E-10	82.178189
-54.5001	-1.19503E-09	82.354805	0.1000001	2.5291E-10	82.354805
-55.0001	-1.2592E-09	82.531426	0.1000004	2.7823E-10	82.531426
-55.5001	-1.26993E-09	82.710258	0.0999999	2.551E-10	82.710258
-56	-1.31305E-09	82.88679	0.0999998	2.3375E-10	82.88679
-56.5	-1.29468E-09	83.081523	0.1000001	2.4422E-10	83.081523
-57.0001	-1.28786E-09	83.258094	0.0999996	2.6696E-10	83.258094
-57.5	-1.54488E-09	83.43469	0.0999994	4.7666E-10	83.43469
-58.0001	-1.71085E-09	83.652162	0.0999989	7.5143E-10	83.652162
-58.5001	-2.67868E-09	83.828828	0.0999989	1.6098E-09	83.828828
-59.0001	-2.16847E-09	84.005366	0.0999994	1.09262E-09	84.005366
-59.5	-1.51811E-09	84.183734	0.0999989	4.8046E-10	84.183734
-60.0001	-1.50903E-09	84.360386	0.1000005	3.9194E-10	84.360386
