File Name: 04_Sample4_device1_It_150kV_VDrain1V_VGate1V_foil.dat
File Data: 16/11/2023	15:41:31
Start V: 0
Step V: 0
Stop V: 0
Range V: 200
Delay(ms): 0
Auorange: yes
Sweep type: log
Instrument Meter: SM2614
Time(ms)	Vdrain(V)	Idrain(A)	Vgate(V)	Igate(A)
0.0000E+0	1.0000E+0	1.5718E-5	1.0000E+0	6.7127E-12
1.0000E+3	1.0000E+0	1.5641E-5	1.0000E+0	5.2810E-12
1.5000E+3	1.0000E+0	1.5604E-5	1.0000E+0	5.0390E-12
2.0000E+3	1.0000E+0	1.5598E-5	1.0000E+0	4.7803E-12
2.5000E+3	1.0000E+0	1.5573E-5	1.0000E+0	4.5490E-12
3.0000E+3	1.0000E+0	1.5567E-5	1.0000E+0	4.4203E-12
3.5000E+3	1.0000E+0	1.5505E-5	1.0000E+0	4.3035E-12
4.0000E+3	1.0000E+0	1.5475E-5	1.0000E+0	4.2009E-12
4.5000E+3	1.0000E+0	1.5476E-5	1.0000E+0	4.2117E-12
5.0000E+3	1.0000E+0	1.5445E-5	1.0000E+0	4.0686E-12
5.5000E+3	1.0000E+0	1.5432E-5	1.0000E+0	3.9446E-12
6.0000E+3	1.0000E+0	1.5405E-5	1.0000E+0	3.8791E-12
6.5000E+3	1.0000E+0	1.5351E-5	1.0000E+0	3.7909E-12
7.0000E+3	1.0000E+0	1.5333E-5	1.0000E+0	3.8397E-12
7.5000E+3	1.0000E+0	1.5310E-5	1.0000E+0	3.8195E-12
8.0000E+3	1.0000E+0	1.5302E-5	1.0000E+0	3.7909E-12
8.5000E+3	1.0000E+0	1.5250E-5	1.0000E+0	3.8123E-12
9.0000E+3	1.0000E+0	1.5220E-5	1.0000E+0	3.6633E-12
9.5000E+3	1.0000E+0	1.5209E-5	1.0000E+0	3.6800E-12
1.0000E+4	1.0000E+0	1.5179E-5	1.0000E+0	3.6645E-12
1.0500E+4	1.0000E+0	1.5145E-5	1.0000E+0	3.7551E-12
1.1000E+4	1.0000E+0	1.5130E-5	1.0000E+0	3.5465E-12
1.1500E+4	1.0000E+0	1.5101E-5	1.0000E+0	3.4916E-12
1.2000E+4	1.0000E+0	1.5094E-5	1.0000E+0	3.4320E-12
1.2500E+4	1.0000E+0	1.5074E-5	1.0000E+0	3.5119E-12
1.3000E+4	1.0000E+0	1.5074E-5	1.0000E+0	3.4368E-12
1.3500E+4	1.0000E+0	1.5039E-5	1.0000E+0	3.4463E-12
1.4000E+4	1.0000E+0	1.4987E-5	1.0000E+0	3.6502E-12
1.4500E+4	1.0000E+0	1.4969E-5	1.0000E+0	3.4141E-12
1.5000E+4	1.0000E+0	1.4975E-5	1.0000E+0	3.3140E-12
1.5500E+4	1.0000E+0	1.4958E-5	1.0000E+0	3.3772E-12
1.6000E+4	1.0000E+0	1.4959E-5	1.0000E+0	3.3677E-12
1.6500E+4	1.0000E+0	1.4925E-5	1.0000E+0	3.3903E-12
1.7000E+4	1.0000E+0	1.4917E-5	1.0000E+0	3.3546E-12
1.7500E+4	1.0000E+0	1.4932E-5	1.0000E+0	3.2532E-12
1.8000E+4	1.0000E+0	1.4914E-5	1.0000E+0	3.3009E-12
1.8500E+4	1.0000E+0	1.4916E-5	1.0000E+0	3.2735E-12
1.9000E+4	1.0000E+0	1.4897E-5	1.0000E+0	3.3009E-12
1.9500E+4	1.0000E+0	1.4870E-5	1.0000E+0	3.2198E-12
2.0000E+4	1.0000E+0	1.4845E-5	1.0000E+0	3.2234E-12
2.0500E+4	1.0000E+0	1.4835E-5	1.0000E+0	3.3021E-12
2.1000E+4	1.0000E+0	1.4805E-5	1.0000E+0	3.2568E-12
2.1500E+4	1.0000E+0	1.4777E-5	1.0000E+0	3.4833E-12
2.2000E+4	1.0000E+0	1.4739E-5	1.0000E+0	3.4201E-12
2.2500E+4	1.0000E+0	1.4713E-5	1.0000E+0	3.1769E-12
2.3000E+4	1.0000E+0	1.4710E-5	1.0000E+0	3.3963E-12
2.3500E+4	1.0000E+0	1.4683E-5	1.0000E+0	3.3641E-12
2.4000E+4	1.0000E+0	1.4682E-5	1.0000E+0	3.2449E-12
2.4500E+4	1.0000E+0	1.4654E-5	1.0000E+0	3.3701E-12
2.5000E+4	1.0000E+0	1.4631E-5	1.0000E+0	3.4022E-12
2.5500E+4	1.0000E+0	1.4624E-5	1.0000E+0	3.3546E-12
2.6000E+4	1.0000E+0	1.4565E-5	1.0000E+0	3.3343E-12
2.6500E+4	1.0000E+0	1.4541E-5	1.0000E+0	3.2866E-12
2.7000E+4	1.0000E+0	1.4521E-5	1.0000E+0	3.3319E-12
2.7500E+4	1.0000E+0	1.4514E-5	1.0000E+0	3.3009E-12
2.8000E+4	1.0000E+0	1.4501E-5	1.0000E+0	3.3557E-12
2.8500E+4	1.0000E+0	1.4455E-5	1.0000E+0	3.2949E-12
2.9000E+4	1.0000E+0	1.4433E-5	1.0000E+0	3.1877E-12
2.9500E+4	1.0000E+0	1.4444E-5	1.0000E+0	3.1710E-12
3.0000E+4	1.0000E+0	1.4413E-5	1.0000E+0	3.2008E-12
3.0500E+4	1.0000E+0	1.4429E-5	1.0000E+0	3.2890E-12
3.1000E+4	1.0000E+0	1.4420E-5	1.0000E+0	3.2306E-12
3.1500E+4	1.0000E+0	1.4418E-5	1.0000E+0	3.2437E-12
3.2000E+4	1.0000E+0	1.4393E-5	1.0000E+0	3.2818E-12
3.2500E+4	1.0000E+0	1.4355E-5	1.0000E+0	3.2532E-12
3.3000E+4	1.0000E+0	1.4298E-5	1.0000E+0	3.2389E-12
3.3500E+4	1.0000E+0	1.4278E-5	1.0000E+0	3.3796E-12
3.4000E+4	1.0000E+0	1.4304E-5	1.0000E+0	3.3259E-12
3.4500E+4	1.0000E+0	1.4268E-5	1.0000E+0	3.2222E-12
3.5000E+4	1.0000E+0	1.4247E-5	1.0000E+0	3.2830E-12
3.5500E+4	1.0000E+0	1.4217E-5	1.0000E+0	3.3510E-12
3.6000E+4	1.0000E+0	1.4218E-5	1.0000E+0	3.2628E-12
3.6500E+4	1.0000E+0	1.4217E-5	1.0000E+0	3.2580E-12
3.7000E+4	1.0000E+0	1.4202E-5	1.0000E+0	3.1996E-12
3.7500E+4	1.0000E+0	1.4160E-5	1.0000E+0	3.1245E-12
3.8000E+4	1.0000E+0	1.4130E-5	1.0000E+0	3.2568E-12
3.8500E+4	1.0000E+0	1.4128E-5	1.0000E+0	3.4153E-12
3.9000E+4	1.0000E+0	1.4107E-5	1.0000E+0	3.3176E-12
3.9500E+4	1.0000E+0	1.4113E-5	1.0000E+0	3.2675E-12
4.0000E+4	1.0000E+0	1.4056E-5	1.0000E+0	3.1948E-12
4.0500E+4	1.0000E+0	1.4045E-5	1.0000E+0	3.4094E-12
4.1000E+4	1.0000E+0	1.4028E-5	1.0000E+0	3.2854E-12
4.1500E+4	1.0000E+0	1.3986E-5	1.0000E+0	3.2532E-12
4.2000E+4	1.0000E+0	1.3995E-5	1.0000E+0	3.3104E-12
4.2500E+4	1.0000E+0	1.3984E-5	1.0000E+0	3.3283E-12
4.3000E+4	1.0000E+0	1.3967E-5	1.0000E+0	3.2795E-12
4.3500E+4	1.0000E+0	1.3945E-5	1.0000E+0	3.2938E-12
4.4000E+4	1.0000E+0	1.3934E-5	1.0000E+0	3.3998E-12
4.4500E+4	1.0000E+0	1.3909E-5	1.0000E+0	3.2222E-12
4.5000E+4	1.0000E+0	1.3875E-5	1.0000E+0	3.2413E-12
4.5500E+4	1.0000E+0	1.3856E-5	1.0000E+0	3.2842E-12
4.6000E+4	1.0000E+0	1.3822E-5	1.0000E+0	3.3653E-12
4.6500E+4	1.0000E+0	1.3824E-5	1.0000E+0	3.4749E-12
4.7000E+4	1.0000E+0	1.3825E-5	1.0000E+0	3.2330E-12
4.7500E+4	1.0000E+0	1.3835E-5	1.0000E+0	3.4225E-12
4.8000E+4	1.0000E+0	1.3793E-5	1.0000E+0	3.4642E-12
4.8500E+4	1.0000E+0	1.3790E-5	1.0000E+0	3.3808E-12
4.9000E+4	1.0000E+0	1.3796E-5	1.0000E+0	3.4356E-12
4.9500E+4	1.0000E+0	1.3787E-5	1.0000E+0	3.2473E-12
5.0000E+4	1.0000E+0	1.3781E-5	1.0000E+0	3.2759E-12
5.0500E+4	1.0000E+0	1.3754E-5	1.0000E+0	3.3891E-12
5.1000E+4	1.0000E+0	1.3723E-5	1.0000E+0	3.2926E-12
5.1500E+4	1.0000E+0	1.3717E-5	1.0000E+0	3.3224E-12
5.2000E+4	1.0000E+0	1.3698E-5	1.0000E+0	3.3390E-12
5.2500E+4	1.0000E+0	1.3662E-5	1.0000E+0	3.2246E-12
5.3000E+4	1.0000E+0	1.3662E-5	1.0000E+0	3.2830E-12
5.3500E+4	1.0000E+0	1.3642E-5	1.0000E+0	3.2949E-12
5.4000E+4	1.0000E+0	1.3634E-5	1.0000E+0	3.5107E-12
5.4500E+4	1.0000E+0	1.3648E-5	1.0000E+0	3.3879E-12
5.5000E+4	1.0000E+0	1.3620E-5	1.0000E+0	3.2926E-12
5.5500E+4	1.0000E+0	1.3566E-5	1.0000E+0	3.3486E-12
5.6000E+4	1.0000E+0	1.3560E-5	1.0000E+0	3.2771E-12
5.6500E+4	1.0000E+0	1.3557E-5	1.0000E+0	3.1662E-12
5.7000E+4	1.0000E+0	1.3534E-5	1.0000E+0	3.1793E-12
5.7500E+4	1.0000E+0	1.3508E-5	1.0000E+0	3.1960E-12
5.8000E+4	1.0000E+0	1.3490E-5	1.0000E+0	3.2067E-12
5.8500E+4	1.0000E+0	1.3491E-5	1.0000E+0	3.2640E-12
5.9000E+4	1.0000E+0	1.3467E-5	1.0000E+0	3.5632E-12
5.9500E+4	1.0000E+0	1.3469E-5	1.0000E+0	3.1865E-12
6.0000E+4	1.0000E+0	1.3433E-5	1.0000E+0	3.2675E-12
6.0500E+4	1.0000E+0	1.3429E-5	1.0000E+0	3.2079E-12
6.1000E+4	1.0000E+0	1.3421E-5	1.0000E+0	3.0267E-12
6.1500E+4	1.0000E+0	1.3435E-5	1.0000E+0	3.1614E-12
6.2000E+4	1.0000E+0	1.3422E-5	1.0000E+0	3.0553E-12
6.2500E+4	1.0000E+0	1.3400E-5	1.0000E+0	3.1626E-12
6.3000E+4	1.0000E+0	1.3380E-5	1.0000E+0	3.0446E-12
6.3500E+4	1.0000E+0	1.3373E-5	1.0000E+0	3.0410E-12
6.4000E+4	1.0000E+0	1.3345E-5	1.0000E+0	3.1519E-12
6.4500E+4	1.0000E+0	1.3312E-5	1.0000E+0	3.2020E-12
6.5000E+4	1.0000E+0	1.3278E-5	1.0000E+0	3.1602E-12
6.5500E+4	1.0000E+0	1.3261E-5	1.0000E+0	3.1757E-12
6.6000E+4	1.0000E+0	1.3228E-5	1.0000E+0	3.2616E-12
6.6500E+4	1.0000E+0	1.3222E-5	1.0000E+0	3.2389E-12
6.7000E+4	1.0000E+0	1.3216E-5	1.0000E+0	3.1126E-12
6.7500E+4	1.0000E+0	1.3202E-5	1.0000E+0	3.0744E-12
6.8000E+4	1.0000E+0	1.3213E-5	1.0000E+0	3.2568E-12
6.8500E+4	1.0000E+0	1.3198E-5	1.0000E+0	3.0887E-12
6.9000E+4	1.0000E+0	1.3159E-5	1.0000E+0	3.1841E-12
6.9500E+4	1.0000E+0	1.3152E-5	1.0000E+0	3.0172E-12
7.0000E+4	1.0000E+0	1.3166E-5	1.0000E+0	3.1102E-12
7.0500E+4	1.0000E+0	1.3158E-5	1.0000E+0	3.2568E-12
7.1000E+4	1.0000E+0	1.3166E-5	1.0000E+0	3.1674E-12
7.1500E+4	1.0000E+0	1.3154E-5	1.0000E+0	3.0839E-12
7.2000E+4	1.0000E+0	1.3122E-5	1.0000E+0	1.8355E-10
7.2500E+4	1.0000E+0	1.3103E-5	1.0000E+0	2.1705E-10
7.3000E+4	1.0000E+0	1.3078E-5	1.0000E+0	2.1944E-10
7.3500E+4	1.0000E+0	1.3025E-5	1.0000E+0	2.2087E-10
7.4000E+4	1.0000E+0	1.2993E-5	1.0000E+0	2.2234E-10
7.4500E+4	1.0000E+0	1.2989E-5	1.0000E+0	2.2310E-10
7.5000E+4	1.0000E+0	1.2942E-5	1.0000E+0	2.2373E-10
7.5500E+4	1.0000E+0	1.2908E-5	1.0000E+0	2.2394E-10
7.6000E+4	1.0000E+0	1.2896E-5	1.0000E+0	2.2405E-10
7.6500E+4	1.0000E+0	1.2864E-5	1.0000E+0	2.2382E-10
7.7000E+4	1.0000E+0	1.2828E-5	1.0000E+0	2.2366E-10
7.7500E+4	1.0000E+0	1.2808E-5	1.0000E+0	2.2337E-10
7.8000E+4	1.0000E+0	1.2799E-5	1.0000E+0	2.2299E-10
7.8500E+4	1.0000E+0	1.2784E-5	1.0000E+0	2.2245E-10
7.9000E+4	1.0000E+0	1.2743E-5	1.0000E+0	2.2225E-10
7.9500E+4	1.0000E+0	1.2742E-5	1.0000E+0	2.2178E-10
8.0000E+4	1.0000E+0	1.2713E-5	1.0000E+0	2.2182E-10
8.0500E+4	1.0000E+0	1.2702E-5	1.0000E+0	2.2148E-10
8.1000E+4	1.0000E+0	1.2680E-5	1.0000E+0	2.2110E-10
8.1500E+4	1.0000E+0	1.2633E-5	1.0000E+0	2.2107E-10
8.2000E+4	1.0000E+0	1.2607E-5	1.0000E+0	6.8550E-11
8.2500E+4	1.0000E+0	1.2615E-5	1.0000E+0	7.5173E-12
8.3000E+4	1.0000E+0	1.2611E-5	1.0000E+0	4.0126E-12
8.3500E+4	1.0000E+0	1.2580E-5	1.0000E+0	3.5989E-12
8.4000E+4	1.0000E+0	1.2583E-5	1.0000E+0	3.4523E-12
8.4500E+4	1.0000E+0	1.2581E-5	1.0000E+0	3.4726E-12
8.5000E+4	1.0000E+0	1.2553E-5	1.0000E+0	3.2902E-12
8.5500E+4	1.0000E+0	1.2477E-5	1.0000E+0	3.3951E-12
8.6000E+4	1.0000E+0	1.2468E-5	1.0000E+0	3.4082E-12
8.6500E+4	1.0000E+0	1.2460E-5	1.0000E+0	3.3009E-12
8.7000E+4	1.0000E+0	1.2433E-5	1.0000E+0	3.2818E-12
8.7500E+4	1.0000E+0	1.2441E-5	1.0000E+0	3.3295E-12
8.8000E+4	1.0000E+0	1.2426E-5	1.0000E+0	3.3045E-12
8.8500E+4	1.0000E+0	1.2404E-5	1.0000E+0	3.2687E-12
8.9000E+4	1.0000E+0	1.2373E-5	1.0000E+0	3.2520E-12
8.9500E+4	1.0000E+0	1.2341E-5	1.0000E+0	3.3235E-12
9.0000E+4	1.0000E+0	1.2297E-5	1.0000E+0	3.2926E-12
9.0500E+4	1.0000E+0	1.2308E-5	1.0000E+0	3.2866E-12
9.1000E+4	1.0000E+0	1.2298E-5	1.0000E+0	3.1698E-12
9.1500E+4	1.0000E+0	1.2301E-5	1.0000E+0	3.2103E-12
9.2000E+4	1.0000E+0	1.2296E-5	1.0000E+0	1.8326E-10
9.2500E+4	1.0000E+0	1.2284E-5	1.0000E+0	2.2101E-10
9.3000E+4	1.0000E+0	1.2277E-5	1.0000E+0	2.2055E-10
9.3500E+4	1.0000E+0	1.2262E-5	1.0000E+0	2.2019E-10
9.4000E+4	1.0000E+0	1.2217E-5	1.0000E+0	2.2017E-10
9.4500E+4	1.0000E+0	1.2193E-5	1.0000E+0	2.1981E-10
9.5000E+4	1.0000E+0	1.2198E-5	1.0000E+0	2.1964E-10
9.5500E+4	1.0000E+0	1.2176E-5	1.0000E+0	2.1936E-10
9.6000E+4	1.0000E+0	1.2134E-5	1.0000E+0	2.1904E-10
9.6500E+4	1.0000E+0	1.2121E-5	1.0000E+0	2.1876E-10
9.7000E+4	1.0000E+0	1.2114E-5	1.0000E+0	2.1847E-10
9.7500E+4	1.0000E+0	1.2084E-5	1.0000E+0	2.1831E-10
9.8000E+4	1.0000E+0	1.2079E-5	1.0000E+0	2.1809E-10
9.8500E+4	1.0000E+0	1.2056E-5	1.0000E+0	2.1785E-10
9.9000E+4	1.0000E+0	1.2033E-5	1.0000E+0	2.1753E-10
9.9500E+4	1.0000E+0	1.1997E-5	1.0000E+0	2.1734E-10
1.0000E+5	1.0000E+0	1.1963E-5	1.0000E+0	2.1719E-10
1.0050E+5	1.0000E+0	1.1972E-5	1.0000E+0	2.1689E-10
1.0100E+5	1.0000E+0	1.1967E-5	1.0000E+0	2.1677E-10
1.0150E+5	1.0000E+0	1.1937E-5	1.0000E+0	2.1671E-10
1.0200E+5	1.0000E+0	1.1917E-5	1.0000E+0	8.3071E-11
1.0250E+5	1.0000E+0	1.1901E-5	1.0000E+0	8.0740E-12
1.0300E+5	1.0000E+0	1.1891E-5	1.0000E+0	3.7539E-12
1.0350E+5	1.0000E+0	1.1900E-5	1.0000E+0	3.3021E-12
1.0400E+5	1.0000E+0	1.1857E-5	1.0000E+0	3.2532E-12
1.0450E+5	1.0000E+0	1.1833E-5	1.0000E+0	3.3665E-12
1.0500E+5	1.0000E+0	1.1805E-5	1.0000E+0	3.2949E-12
1.0550E+5	1.0000E+0	1.1793E-5	1.0000E+0	3.1912E-12
1.0600E+5	1.0000E+0	1.1787E-5	1.0000E+0	3.2330E-12
1.0650E+5	1.0000E+0	1.1754E-5	1.0000E+0	3.2270E-12
1.0700E+5	1.0000E+0	1.1759E-5	1.0000E+0	3.3057E-12
1.0750E+5	1.0000E+0	1.1742E-5	1.0000E+0	3.2878E-12
1.0800E+5	1.0000E+0	1.1740E-5	1.0000E+0	3.2651E-12
1.0850E+5	1.0000E+0	1.1704E-5	1.0000E+0	3.4654E-12
1.0900E+5	1.0000E+0	1.1696E-5	1.0000E+0	3.3617E-12
1.0950E+5	1.0000E+0	1.1705E-5	1.0000E+0	3.2973E-12
1.1000E+5	1.0000E+0	1.1691E-5	1.0000E+0	3.3843E-12
1.1050E+5	1.0000E+0	1.1669E-5	1.0000E+0	3.3319E-12
1.1100E+5	1.0000E+0	1.1665E-5	1.0000E+0	3.2401E-12
1.1150E+5	1.0000E+0	1.1645E-5	1.0000E+0	3.2723E-12
1.1200E+5	1.0000E+0	1.1658E-5	1.0000E+0	1.6905E-10
1.1250E+5	1.0000E+0	1.1622E-5	1.0000E+0	2.1729E-10
1.1300E+5	1.0000E+0	1.1609E-5	1.0000E+0	2.1691E-10
1.1350E+5	1.0000E+0	1.1609E-5	1.0000E+0	2.1655E-10
1.1400E+5	1.0000E+0	1.1593E-5	1.0000E+0	2.1638E-10
1.1450E+5	1.0000E+0	1.1548E-5	1.0000E+0	2.1610E-10
1.1500E+5	1.0000E+0	1.1544E-5	1.0000E+0	2.1593E-10
1.1550E+5	1.0000E+0	1.1526E-5	1.0000E+0	2.1565E-10
1.1600E+5	1.0000E+0	1.1511E-5	1.0000E+0	2.1539E-10
1.1650E+5	1.0000E+0	1.1473E-5	1.0000E+0	2.1507E-10
1.1700E+5	1.0000E+0	1.1482E-5	1.0000E+0	2.1507E-10
1.1750E+5	1.0000E+0	1.1446E-5	1.0000E+0	2.1488E-10
1.1800E+5	1.0000E+0	1.1443E-5	1.0000E+0	2.1490E-10
1.1850E+5	1.0000E+0	1.1413E-5	1.0000E+0	2.1465E-10
1.1900E+5	1.0000E+0	1.1409E-5	1.0000E+0	2.1460E-10
1.1950E+5	1.0000E+0	1.1408E-5	1.0000E+0	2.1448E-10
1.2000E+5	1.0000E+0	1.1384E-5	1.0000E+0	2.1417E-10
1.2050E+5	1.0000E+0	1.1376E-5	1.0000E+0	2.1430E-10
1.2100E+5	1.0000E+0	1.1370E-5	1.0000E+0	2.1421E-10
1.2150E+5	1.0000E+0	1.1348E-5	1.0000E+0	2.1433E-10
1.2200E+5	1.0000E+0	1.1308E-5	1.0000E+0	1.0591E-10
1.2250E+5	1.0000E+0	1.1284E-5	1.0000E+0	8.6582E-12
1.2300E+5	1.0000E+0	1.1264E-5	1.0000E+0	3.7599E-12
1.2350E+5	1.0000E+0	1.1253E-5	1.0000E+0	3.2401E-12
1.2400E+5	1.0000E+0	1.1254E-5	1.0000E+0	3.1662E-12
1.2450E+5	1.0000E+0	1.1217E-5	1.0000E+0	3.2377E-12
1.2500E+5	1.0000E+0	1.1199E-5	1.0000E+0	3.1841E-12
1.2550E+5	1.0000E+0	1.1200E-5	1.0000E+0	3.2091E-12
1.2600E+5	1.0000E+0	1.1161E-5	1.0000E+0	3.1388E-12
1.2650E+5	1.0000E+0	1.1133E-5	1.0000E+0	3.0136E-12
1.2700E+5	1.0000E+0	1.1143E-5	1.0000E+0	3.0506E-12
1.2750E+5	1.0000E+0	1.1138E-5	1.0000E+0	3.0482E-12
1.2800E+5	1.0000E+0	1.1127E-5	1.0000E+0	3.1138E-12
1.2850E+5	1.0000E+0	1.1116E-5	1.0000E+0	3.2616E-12
1.2900E+5	1.0000E+0	1.1103E-5	1.0000E+0	3.1424E-12
1.2950E+5	1.0000E+0	1.1098E-5	1.0000E+0	3.2163E-12
1.3000E+5	1.0000E+0	1.1086E-5	1.0000E+0	3.0720E-12
1.3050E+5	1.0000E+0	1.1043E-5	1.0000E+0	3.0208E-12
1.3100E+5	1.0000E+0	1.1058E-5	1.0000E+0	3.0398E-12
1.3150E+5	1.0000E+0	1.1042E-5	1.0000E+0	3.1221E-12
1.3200E+5	1.0000E+0	1.1055E-5	1.0000E+0	1.5304E-10
1.3250E+5	1.0000E+0	1.1041E-5	1.0000E+0	2.1483E-10
1.3300E+5	1.0000E+0	1.1014E-5	1.0000E+0	2.1433E-10
1.3350E+5	1.0000E+0	1.1002E-5	1.0000E+0	2.1400E-10
1.3400E+5	1.0000E+0	1.0977E-5	1.0000E+0	2.1368E-10
1.3450E+5	1.0000E+0	1.0974E-5	1.0000E+0	2.1350E-10
1.3500E+5	1.0000E+0	1.0940E-5	1.0000E+0	2.1347E-10
1.3550E+5	1.0000E+0	1.0927E-5	1.0000E+0	2.1313E-10
1.3600E+5	1.0000E+0	1.0893E-5	1.0000E+0	2.1308E-10
1.3650E+5	1.0000E+0	1.0865E-5	1.0000E+0	2.1326E-10
1.3700E+5	1.0000E+0	1.0860E-5	1.0000E+0	2.1291E-10
1.3750E+5	1.0000E+0	1.0844E-5	1.0000E+0	2.1283E-10
1.3800E+5	1.0000E+0	1.0830E-5	1.0000E+0	2.1284E-10
1.3850E+5	1.0000E+0	1.0792E-5	1.0000E+0	2.1264E-10
1.3900E+5	1.0000E+0	1.0773E-5	1.0000E+0	2.1260E-10
1.3950E+5	1.0000E+0	1.0760E-5	1.0000E+0	2.1255E-10
1.4000E+5	1.0000E+0	1.0736E-5	1.0000E+0	2.1241E-10
1.4050E+5	1.0000E+0	1.0689E-5	1.0000E+0	2.1232E-10
1.4100E+5	1.0000E+0	1.0713E-5	1.0000E+0	2.1245E-10
1.4150E+5	1.0000E+0	1.0686E-5	1.0000E+0	2.1211E-10
1.4200E+5	1.0000E+0	1.0659E-5	1.0000E+0	1.2819E-10
1.4250E+5	1.0000E+0	1.0622E-5	1.0000E+0	9.5487E-12
1.4300E+5	1.0000E+0	1.0629E-5	1.0000E+0	3.8612E-12
1.4350E+5	1.0000E+0	1.0611E-5	1.0000E+0	3.4094E-12
1.4400E+5	1.0000E+0	1.0581E-5	1.0000E+0	3.2389E-12
1.4450E+5	1.0000E+0	1.0581E-5	1.0000E+0	3.1054E-12
1.4500E+5	1.0000E+0	1.0564E-5	1.0000E+0	3.0780E-12
1.4550E+5	1.0000E+0	1.0543E-5	1.0000E+0	3.1602E-12
1.4600E+5	1.0000E+0	1.0520E-5	1.0000E+0	3.1471E-12
1.4650E+5	1.0000E+0	1.0520E-5	1.0000E+0	3.0959E-12
1.4700E+5	1.0000E+0	1.0511E-5	1.0000E+0	3.2568E-12
1.4750E+5	1.0000E+0	1.0490E-5	1.0000E+0	3.2151E-12
1.4800E+5	1.0000E+0	1.0475E-5	1.0000E+0	3.2640E-12
1.4850E+5	1.0000E+0	1.0468E-5	1.0000E+0	3.1710E-12
1.4900E+5	1.0000E+0	1.0447E-5	1.0000E+0	3.1054E-12
1.4950E+5	1.0000E+0	1.0425E-5	1.0000E+0	3.1590E-12
1.5000E+5	1.0000E+0	1.0431E-5	1.0000E+0	3.1912E-12
1.5050E+5	1.0000E+0	1.0409E-5	1.0000E+0	3.1614E-12
1.5100E+5	1.0000E+0	1.0399E-5	1.0000E+0	3.2580E-12
1.5150E+5	1.0000E+0	1.0395E-5	1.0000E+0	3.2341E-12
1.5200E+5	1.0000E+0	1.0387E-5	1.0000E+0	3.1292E-12
1.5250E+5	1.0000E+0	1.0395E-5	1.0000E+0	3.2461E-12
1.5300E+5	1.0000E+0	1.0389E-5	1.0000E+0	3.3724E-12
1.5350E+5	1.0000E+0	1.0379E-5	1.0000E+0	3.3748E-12
1.5400E+5	1.0000E+0	1.0363E-5	1.0000E+0	3.4642E-12
1.5450E+5	1.0000E+0	1.0357E-5	1.0000E+0	3.2640E-12
1.5500E+5	1.0000E+0	1.0362E-5	1.0000E+0	3.1829E-12
1.5550E+5	1.0000E+0	1.0361E-5	1.0000E+0	3.3522E-12
1.5600E+5	1.0000E+0	1.0344E-5	1.0000E+0	3.1960E-12
1.5650E+5	1.0000E+0	1.0354E-5	1.0000E+0	3.1769E-12
1.5700E+5	1.0000E+0	1.0348E-5	1.0000E+0	3.1948E-12
1.5750E+5	1.0000E+0	1.0345E-5	1.0000E+0	3.2175E-12
1.5800E+5	1.0000E+0	1.0337E-5	1.0000E+0	3.1316E-12
1.5850E+5	1.0000E+0	1.0350E-5	1.0000E+0	3.1865E-12
1.5900E+5	1.0000E+0	1.0356E-5	1.0000E+0	3.2032E-12
1.5950E+5	1.0000E+0	1.0338E-5	1.0000E+0	3.2032E-12
1.6000E+5	1.0000E+0	1.0331E-5	1.0000E+0	3.1352E-12
1.6050E+5	1.0000E+0	1.0308E-5	1.0000E+0	3.1412E-12
1.6100E+5	1.0000E+0	1.0313E-5	1.0000E+0	3.1090E-12
1.6150E+5	1.0000E+0	1.0307E-5	1.0000E+0	3.2520E-12
1.6200E+5	1.0000E+0	1.0286E-5	1.0000E+0	3.2115E-12
1.6250E+5	1.0000E+0	1.0295E-5	1.0000E+0	3.2425E-12
1.6300E+5	1.0000E+0	1.0258E-5	1.0000E+0	3.1912E-12
1.6350E+5	1.0000E+0	1.0239E-5	1.0000E+0	3.0518E-12
1.6400E+5	1.0000E+0	1.0240E-5	1.0000E+0	3.2246E-12
1.6450E+5	1.0000E+0	1.0231E-5	1.0000E+0	3.3188E-12
1.6500E+5	1.0000E+0	1.0230E-5	1.0000E+0	3.1006E-12
1.6550E+5	1.0000E+0	1.0208E-5	1.0000E+0	3.0971E-12
1.6600E+5	1.0000E+0	1.0213E-5	1.0000E+0	3.1626E-12
1.6650E+5	1.0000E+0	1.0228E-5	1.0000E+0	3.1543E-12
1.6700E+5	1.0000E+0	1.0207E-5	1.0000E+0	3.0983E-12
1.6750E+5	1.0000E+0	1.0228E-5	1.0000E+0	3.1471E-12
1.6800E+5	1.0000E+0	1.0210E-5	1.0000E+0	3.4952E-12
1.6850E+5	1.0000E+0	1.0228E-5	1.0000E+0	4.0066E-12
1.6900E+5	1.0000E+0	1.0219E-5	1.0000E+0	4.9007E-12
1.6950E+5	1.0000E+0	1.0223E-5	1.0000E+0	5.3191E-12
1.7000E+5	1.0000E+0	1.0208E-5	1.0000E+0	5.5647E-12
1.7050E+5	1.0000E+0	1.0197E-5	1.0000E+0	5.5933E-12
1.7100E+5	1.0000E+0	1.0215E-5	1.0000E+0	5.7840E-12
1.7150E+5	1.0000E+0	1.0209E-5	1.0000E+0	5.6612E-12
1.7200E+5	1.0000E+0	1.0222E-5	1.0000E+0	5.6744E-12
1.7250E+5	1.0000E+0	1.0205E-5	1.0000E+0	5.5957E-12
1.7300E+5	1.0000E+0	1.0223E-5	1.0000E+0	5.5790E-12
1.7350E+5	1.0000E+0	1.0197E-5	1.0000E+0	5.7697E-12
1.7400E+5	1.0000E+0	1.0158E-5	1.0000E+0	5.7149E-12
1.7450E+5	1.0000E+0	1.0155E-5	1.0000E+0	5.8579E-12
