File Name: 11_Sample6_device1_It_150kV_500uA_VDrain1V_VGate1V.dat
File Data: 17/11/2023	13:49:10
Start V: 0
Step V: 0
Stop V: 0
Range V: 200
Delay(ms): 0
Auorange: yes
Sweep type: log
Instrument Meter: SM2614
Time(ms)	Vdrain(V)	Idrain(A)	Vgate(V)	Igate(A)
0.0000E+0	1.0000E+0	7.4157E-7	1.0000E+0	-6.5446E-12
1.0000E+3	1.0000E+0	7.4124E-7	1.0000E+0	6.4123E-12
1.5000E+3	1.0000E+0	7.4087E-7	1.0000E+0	5.6672E-12
2.0000E+3	1.0000E+0	7.4133E-7	1.0000E+0	4.8876E-12
2.5000E+3	1.0000E+0	7.4127E-7	1.0000E+0	5.0020E-12
3.0000E+3	1.0000E+0	7.4098E-7	1.0000E+0	4.8590E-12
3.5000E+3	1.0000E+0	7.4059E-7	1.0000E+0	4.2331E-12
4.0000E+3	1.0000E+0	7.3881E-7	1.0000E+0	4.4978E-12
4.5000E+3	1.0000E+0	7.3967E-7	1.0000E+0	4.3762E-12
5.0000E+3	1.0000E+0	7.3990E-7	1.0000E+0	3.6442E-12
5.5000E+3	1.0000E+0	7.3900E-7	1.0000E+0	4.5288E-12
6.0000E+3	1.0000E+0	7.4071E-7	1.0000E+0	4.4763E-12
6.5000E+3	1.0000E+0	7.4064E-7	1.0000E+0	4.5764E-12
7.0000E+3	1.0000E+0	7.3950E-7	1.0000E+0	4.2009E-12
7.5000E+3	1.0000E+0	7.4036E-7	1.0000E+0	4.1556E-12
8.0000E+3	1.0000E+0	7.4077E-7	1.0000E+0	3.6859E-12
8.5000E+3	1.0000E+0	7.4154E-7	1.0000E+0	3.7003E-12
9.0000E+3	1.0000E+0	7.4249E-7	1.0000E+0	3.8505E-12
9.5000E+3	1.0000E+0	7.4238E-7	1.0000E+0	3.8588E-12
1.0000E+4	1.0000E+0	7.3920E-7	1.0000E+0	3.7980E-12
1.0500E+4	1.0000E+0	7.3999E-7	1.0000E+0	3.3009E-12
1.1000E+4	1.0000E+0	7.3947E-7	1.0000E+0	3.6216E-12
1.1500E+4	1.0000E+0	7.3916E-7	1.0000E+0	3.4595E-12
1.2000E+4	1.0000E+0	7.3917E-7	1.0000E+0	3.5739E-12
1.2500E+4	1.0000E+0	7.3964E-7	1.0000E+0	3.1042E-12
1.3000E+4	1.0000E+0	7.3752E-7	1.0000E+0	3.6645E-12
1.3500E+4	1.0000E+0	7.3847E-7	1.0000E+0	3.3534E-12
1.4000E+4	1.0000E+0	7.3790E-7	1.0000E+0	3.4273E-12
1.4500E+4	1.0000E+0	7.3645E-7	1.0000E+0	3.4213E-12
1.5000E+4	1.0000E+0	7.3652E-7	1.0000E+0	3.0458E-12
1.5500E+4	1.0000E+0	7.3704E-7	1.0000E+0	2.9778E-12
1.6000E+4	1.0000E+0	7.3622E-7	1.0000E+0	2.7299E-12
1.6500E+4	1.0000E+0	7.3774E-7	1.0000E+0	2.7335E-12
1.7000E+4	1.0000E+0	7.3714E-7	1.0000E+0	2.2531E-12
1.7500E+4	1.0000E+0	7.3582E-7	1.0000E+0	2.6798E-12
1.8000E+4	1.0000E+0	7.3498E-7	1.0000E+0	2.9254E-12
1.8500E+4	1.0000E+0	7.3495E-7	1.0000E+0	2.8324E-12
1.9000E+4	1.0000E+0	7.3391E-7	1.0000E+0	2.6357E-12
1.9500E+4	1.0000E+0	7.3527E-7	1.0000E+0	2.4593E-12
2.0000E+4	1.0000E+0	7.3445E-7	1.0000E+0	2.8539E-12
2.0500E+4	1.0000E+0	7.3447E-7	1.0000E+0	2.4974E-12
2.1000E+4	1.0000E+0	7.3480E-7	1.0000E+0	2.5153E-12
2.1500E+4	1.0000E+0	7.3379E-7	1.0000E+0	2.4664E-12
2.2000E+4	1.0000E+0	7.3270E-7	1.0000E+0	2.2435E-12
2.2500E+4	1.0000E+0	7.3581E-7	1.0000E+0	2.4295E-12
2.3000E+4	1.0000E+0	7.3701E-7	1.0000E+0	2.4009E-12
2.3500E+4	1.0000E+0	7.3754E-7	1.0000E+0	2.6667E-12
2.4000E+4	1.0000E+0	7.3828E-7	1.0000E+0	2.0611E-12
2.4500E+4	1.0000E+0	7.3581E-7	1.0000E+0	2.6107E-12
2.5000E+4	1.0000E+0	7.3733E-7	1.0000E+0	2.6941E-12
2.5500E+4	1.0000E+0	7.3767E-7	1.0000E+0	2.6500E-12
2.6000E+4	1.0000E+0	7.3752E-7	1.0000E+0	2.9588E-12
2.6500E+4	1.0000E+0	7.3593E-7	1.0000E+0	2.5189E-12
2.7000E+4	1.0000E+0	7.3585E-7	1.0000E+0	2.4021E-12
2.7500E+4	1.0000E+0	7.3501E-7	1.0000E+0	1.9527E-12
2.8000E+4	1.0000E+0	7.3595E-7	1.0000E+0	2.3353E-12
2.8500E+4	1.0000E+0	7.3568E-7	1.0000E+0	2.7502E-12
2.9000E+4	1.0000E+0	7.3659E-7	1.0000E+0	2.3425E-12
2.9500E+4	1.0000E+0	7.3454E-7	1.0000E+0	2.7144E-12
3.0000E+4	1.0000E+0	7.3485E-7	1.0000E+0	1.7667E-12
3.0500E+4	1.0000E+0	7.3411E-7	1.0000E+0	1.8382E-12
3.1000E+4	1.0000E+0	7.3600E-7	1.0000E+0	2.6178E-12
3.1500E+4	1.0000E+0	7.3543E-7	1.0000E+0	2.5582E-12
3.2000E+4	1.0000E+0	7.3457E-7	1.0000E+0	2.6131E-12
3.2500E+4	1.0000E+0	7.3410E-7	1.0000E+0	2.3985E-12
3.3000E+4	1.0000E+0	7.3593E-7	1.0000E+0	2.0945E-12
3.3500E+4	1.0000E+0	7.3556E-7	1.0000E+0	2.2674E-12
3.4000E+4	1.0000E+0	7.3492E-7	1.0000E+0	2.1744E-12
3.4500E+4	1.0000E+0	7.3389E-7	1.0000E+0	2.3520E-12
3.5000E+4	1.0000E+0	7.3511E-7	1.0000E+0	2.2113E-12
3.5500E+4	1.0000E+0	7.3496E-7	1.0000E+0	2.6214E-12
3.6000E+4	1.0000E+0	7.3448E-7	1.0000E+0	2.3627E-12
3.6500E+4	1.0000E+0	7.3558E-7	1.0000E+0	2.5189E-12
3.7000E+4	1.0000E+0	7.3511E-7	1.0000E+0	2.6894E-12
3.7500E+4	1.0000E+0	7.3372E-7	1.0000E+0	2.3937E-12
3.8000E+4	1.0000E+0	7.3394E-7	1.0000E+0	2.2113E-12
3.8500E+4	1.0000E+0	7.3527E-7	1.0000E+0	2.3520E-12
3.9000E+4	1.0000E+0	7.3380E-7	1.0000E+0	2.1303E-12
3.9500E+4	1.0000E+0	7.3511E-7	1.0000E+0	2.1636E-12
4.0000E+4	1.0000E+0	7.3612E-7	1.0000E+0	2.6607E-12
4.0500E+4	1.0000E+0	7.3537E-7	1.0000E+0	2.4593E-12
4.1000E+4	1.0000E+0	7.3584E-7	1.0000E+0	2.2650E-12
4.1500E+4	1.0000E+0	7.3548E-7	1.0000E+0	2.7072E-12
4.2000E+4	1.0000E+0	7.3464E-7	1.0000E+0	2.6274E-12
4.2500E+4	1.0000E+0	7.3513E-7	1.0000E+0	2.6918E-12
4.3000E+4	1.0000E+0	7.3656E-7	1.0000E+0	3.0482E-12
4.3500E+4	1.0000E+0	7.3512E-7	1.0000E+0	2.7740E-12
4.4000E+4	1.0000E+0	7.3494E-7	1.0000E+0	2.7955E-12
4.4500E+4	1.0000E+0	7.3419E-7	1.0000E+0	2.8729E-12
4.5000E+4	1.0000E+0	7.3419E-7	1.0000E+0	2.6417E-12
4.5500E+4	1.0000E+0	7.3505E-7	1.0000E+0	2.6739E-12
4.6000E+4	1.0000E+0	7.3279E-7	1.0000E+0	2.8872E-12
4.6500E+4	1.0000E+0	7.3315E-7	1.0000E+0	2.7275E-12
4.7000E+4	1.0000E+0	7.3467E-7	1.0000E+0	2.7132E-12
4.7500E+4	1.0000E+0	7.3296E-7	1.0000E+0	2.9302E-12
4.8000E+4	1.0000E+0	7.3350E-7	1.0000E+0	3.2914E-12
4.8500E+4	1.0000E+0	7.2986E-7	1.0000E+0	2.5356E-12
4.9000E+4	1.0000E+0	7.3084E-7	1.0000E+0	2.8181E-12
4.9500E+4	1.0000E+0	7.3201E-7	1.0000E+0	2.4188E-12
5.0000E+4	1.0000E+0	7.3085E-7	1.0000E+0	2.4867E-12
5.0500E+4	1.0000E+0	7.2983E-7	1.0000E+0	2.4986E-12
5.1000E+4	1.0000E+0	7.3021E-7	1.0000E+0	2.4486E-12
5.1500E+4	1.0000E+0	7.3234E-7	1.0000E+0	2.6643E-12
5.2000E+4	1.0000E+0	7.3237E-7	1.0000E+0	2.5880E-12
5.2500E+4	1.0000E+0	7.3238E-7	1.0000E+0	2.7943E-12
5.3000E+4	1.0000E+0	7.3067E-7	1.0000E+0	2.3687E-12
5.3500E+4	1.0000E+0	7.3036E-7	1.0000E+0	2.7323E-12
5.4000E+4	1.0000E+0	7.3128E-7	1.0000E+0	2.8098E-12
5.4500E+4	1.0000E+0	7.3004E-7	1.0000E+0	2.7335E-12
5.5000E+4	1.0000E+0	7.2956E-7	1.0000E+0	2.6298E-12
5.5500E+4	1.0000E+0	7.2973E-7	1.0000E+0	2.6321E-12
5.6000E+4	1.0000E+0	7.2997E-7	1.0000E+0	2.3305E-12
5.6500E+4	1.0000E+0	7.3089E-7	1.0000E+0	2.5094E-12
5.7000E+4	1.0000E+0	7.2820E-7	1.0000E+0	2.4962E-12
5.7500E+4	1.0000E+0	7.2816E-7	1.0000E+0	2.5153E-12
5.8000E+4	1.0000E+0	7.2843E-7	1.0000E+0	2.7072E-12
5.8500E+4	1.0000E+0	7.2694E-7	1.0000E+0	2.6274E-12
5.9000E+4	1.0000E+0	7.2841E-7	1.0000E+0	2.9075E-12
5.9500E+4	1.0000E+0	7.2631E-7	1.0000E+0	2.5952E-12
6.0000E+4	1.0000E+0	7.2891E-7	1.0000E+0	2.5713E-12
6.0500E+4	1.0000E+0	7.2676E-7	1.0000E+0	2.6953E-12
6.1000E+4	1.0000E+0	7.2852E-7	1.0000E+0	2.3735E-12
6.1500E+4	1.0000E+0	7.2766E-7	1.0000E+0	2.4295E-12
6.2000E+4	1.0000E+0	7.2756E-7	1.0000E+0	2.4784E-12
6.2500E+4	1.0000E+0	7.2863E-7	1.0000E+0	2.1732E-12
6.3000E+4	1.0000E+0	7.2810E-7	1.0000E+0	2.7966E-12
6.3500E+4	1.0000E+0	7.2782E-7	1.0000E+0	2.3878E-12
6.4000E+4	1.0000E+0	7.2687E-7	1.0000E+0	2.5404E-12
6.4500E+4	1.0000E+0	7.2808E-7	1.0000E+0	2.6429E-12
6.5000E+4	1.0000E+0	7.2945E-7	1.0000E+0	2.8503E-12
6.5500E+4	1.0000E+0	7.2857E-7	1.0000E+0	2.6178E-12
6.6000E+4	1.0000E+0	7.3019E-7	1.0000E+0	2.8217E-12
6.6500E+4	1.0000E+0	7.3037E-7	1.0000E+0	2.5654E-12
6.7000E+4	1.0000E+0	7.2892E-7	1.0000E+0	2.6202E-12
6.7500E+4	1.0000E+0	7.2796E-7	1.0000E+0	2.3925E-12
6.8000E+4	1.0000E+0	7.2893E-7	1.0000E+0	2.3651E-12
6.8500E+4	1.0000E+0	7.2885E-7	1.0000E+0	3.0279E-12
6.9000E+4	1.0000E+0	7.2833E-7	1.0000E+0	2.8276E-12
6.9500E+4	1.0000E+0	7.2774E-7	1.0000E+0	2.6798E-12
7.0000E+4	1.0000E+0	7.2745E-7	1.0000E+0	2.7168E-12
7.0500E+4	1.0000E+0	7.2825E-7	1.0000E+0	4.3321E-12
7.1000E+4	1.0000E+0	7.2889E-7	1.0000E+0	6.8153E-10
7.1500E+4	1.0000E+0	7.3032E-7	1.0000E+0	6.9633E-10
7.2000E+4	1.0000E+0	7.2943E-7	1.0000E+0	6.9688E-10
7.2500E+4	1.0000E+0	7.2954E-7	1.0000E+0	6.9522E-10
7.3000E+4	1.0000E+0	7.3030E-7	1.0000E+0	6.9276E-10
7.3500E+4	1.0000E+0	7.2854E-7	1.0000E+0	6.9060E-10
7.4000E+4	1.0000E+0	7.2945E-7	1.0000E+0	6.8760E-10
7.4500E+4	1.0000E+0	7.2952E-7	1.0000E+0	6.8584E-10
7.5000E+4	1.0000E+0	7.2806E-7	1.0000E+0	6.8341E-10
7.5500E+4	1.0000E+0	7.2787E-7	1.0000E+0	6.8123E-10
7.6000E+4	1.0000E+0	7.2783E-7	1.0000E+0	6.7880E-10
7.6500E+4	1.0000E+0	7.2786E-7	1.0000E+0	6.7749E-10
7.7000E+4	1.0000E+0	7.2718E-7	1.0000E+0	6.7462E-10
7.7500E+4	1.0000E+0	7.2840E-7	1.0000E+0	6.7284E-10
7.8000E+4	1.0000E+0	7.2663E-7	1.0000E+0	6.7107E-10
7.8500E+4	1.0000E+0	7.2828E-7	1.0000E+0	6.6997E-10
7.9000E+4	1.0000E+0	7.2649E-7	1.0000E+0	6.6838E-10
7.9500E+4	1.0000E+0	7.2894E-7	1.0000E+0	6.6748E-10
8.0000E+4	1.0000E+0	7.2915E-7	1.0000E+0	6.6535E-10
8.0500E+4	1.0000E+0	7.2997E-7	1.0000E+0	6.6444E-10
8.1000E+4	1.0000E+0	7.3055E-7	1.0000E+0	2.8484E-11
8.1500E+4	1.0000E+0	7.2891E-7	1.0000E+0	4.7290E-12
8.2000E+4	1.0000E+0	7.2778E-7	1.0000E+0	3.2484E-12
8.2500E+4	1.0000E+0	7.2721E-7	1.0000E+0	3.2437E-12
8.3000E+4	1.0000E+0	7.2754E-7	1.0000E+0	3.7193E-12
8.3500E+4	1.0000E+0	7.2566E-7	1.0000E+0	3.5763E-12
8.4000E+4	1.0000E+0	7.2718E-7	1.0000E+0	3.6192E-12
8.4500E+4	1.0000E+0	7.2701E-7	1.0000E+0	3.2580E-12
8.5000E+4	1.0000E+0	7.2642E-7	1.0000E+0	3.5131E-12
8.5500E+4	1.0000E+0	7.2532E-7	1.0000E+0	3.3331E-12
8.6000E+4	1.0000E+0	7.2380E-7	1.0000E+0	3.2186E-12
8.6500E+4	1.0000E+0	7.2491E-7	1.0000E+0	3.4845E-12
8.7000E+4	1.0000E+0	7.2331E-7	1.0000E+0	3.3689E-12
8.7500E+4	1.0000E+0	7.2380E-7	1.0000E+0	3.6514E-12
8.8000E+4	1.0000E+0	7.2393E-7	1.0000E+0	3.0458E-12
8.8500E+4	1.0000E+0	7.2309E-7	1.0000E+0	3.6561E-12
8.9000E+4	1.0000E+0	7.2235E-7	1.0000E+0	3.5143E-12
8.9500E+4	1.0000E+0	7.2208E-7	1.0000E+0	3.7169E-12
9.0000E+4	1.0000E+0	7.2375E-7	1.0000E+0	3.3450E-12
9.0500E+4	1.0000E+0	7.2447E-7	1.0000E+0	3.4583E-12
9.1000E+4	1.0000E+0	7.2403E-7	1.0000E+0	6.5597E-10
9.1500E+4	1.0000E+0	7.2234E-7	1.0000E+0	6.5435E-10
9.2000E+4	1.0000E+0	7.2415E-7	1.0000E+0	6.5261E-10
9.2500E+4	1.0000E+0	7.2210E-7	1.0000E+0	6.5153E-10
9.3000E+4	1.0000E+0	7.2248E-7	1.0000E+0	6.5039E-10
9.3500E+4	1.0000E+0	7.2232E-7	1.0000E+0	6.4874E-10
9.4000E+4	1.0000E+0	7.2237E-7	1.0000E+0	6.4736E-10
9.4500E+4	1.0000E+0	7.2342E-7	1.0000E+0	6.4648E-10
9.5000E+4	1.0000E+0	7.2462E-7	1.0000E+0	6.4497E-10
9.5500E+4	1.0000E+0	7.2230E-7	1.0000E+0	6.4414E-10
9.6000E+4	1.0000E+0	7.2091E-7	1.0000E+0	6.4270E-10
9.6500E+4	1.0000E+0	7.2137E-7	1.0000E+0	6.4186E-10
9.7000E+4	1.0000E+0	7.1941E-7	1.0000E+0	6.4051E-10
9.7500E+4	1.0000E+0	7.2006E-7	1.0000E+0	6.3934E-10
9.8000E+4	1.0000E+0	7.2037E-7	1.0000E+0	6.3833E-10
9.8500E+4	1.0000E+0	7.2025E-7	1.0000E+0	6.3771E-10
9.9000E+4	1.0000E+0	7.1894E-7	1.0000E+0	6.3587E-10
9.9500E+4	1.0000E+0	7.1855E-7	1.0000E+0	6.3527E-10
1.0000E+5	1.0000E+0	7.1873E-7	1.0000E+0	6.3386E-10
1.0050E+5	1.0000E+0	7.1869E-7	1.0000E+0	6.3261E-10
1.0100E+5	1.0000E+0	7.1850E-7	1.0000E+0	3.3063E-11
1.0150E+5	1.0000E+0	7.1748E-7	1.0000E+0	4.7934E-12
1.0200E+5	1.0000E+0	7.1699E-7	1.0000E+0	2.9862E-12
1.0250E+5	1.0000E+0	7.1614E-7	1.0000E+0	2.6381E-12
1.0300E+5	1.0000E+0	7.1471E-7	1.0000E+0	2.8455E-12
1.0350E+5	1.0000E+0	7.1307E-7	1.0000E+0	2.8217E-12
1.0400E+5	1.0000E+0	7.1417E-7	1.0000E+0	2.7311E-12
1.0450E+5	1.0000E+0	7.1312E-7	1.0000E+0	3.4237E-12
1.0500E+5	1.0000E+0	7.1386E-7	1.0000E+0	3.1257E-12
1.0550E+5	1.0000E+0	7.1277E-7	1.0000E+0	2.7764E-12
1.0600E+5	1.0000E+0	7.1240E-7	1.0000E+0	2.8312E-12
1.0650E+5	1.0000E+0	7.1292E-7	1.0000E+0	2.5344E-12
1.0700E+5	1.0000E+0	7.1226E-7	1.0000E+0	2.5761E-12
1.0750E+5	1.0000E+0	7.1201E-7	1.0000E+0	2.7347E-12
1.0800E+5	1.0000E+0	7.1124E-7	1.0000E+0	2.8443E-12
1.0850E+5	1.0000E+0	7.1226E-7	1.0000E+0	2.7454E-12
1.0900E+5	1.0000E+0	7.1251E-7	1.0000E+0	2.1851E-12
1.0950E+5	1.0000E+0	7.1122E-7	1.0000E+0	2.5952E-12
1.1000E+5	1.0000E+0	7.1037E-7	1.0000E+0	3.1161E-12
1.1050E+5	1.0000E+0	7.0973E-7	1.0000E+0	3.2568E-12
1.1100E+5	1.0000E+0	7.1165E-7	1.0000E+0	6.4765E-10
1.1150E+5	1.0000E+0	7.1059E-7	1.0000E+0	6.4964E-10
1.1200E+5	1.0000E+0	7.1040E-7	1.0000E+0	6.4765E-10
1.1250E+5	1.0000E+0	7.0954E-7	1.0000E+0	6.4572E-10
1.1300E+5	1.0000E+0	7.1084E-7	1.0000E+0	6.4474E-10
1.1350E+5	1.0000E+0	7.0962E-7	1.0000E+0	6.4394E-10
1.1400E+5	1.0000E+0	7.0900E-7	1.0000E+0	6.4331E-10
1.1450E+5	1.0000E+0	7.0985E-7	1.0000E+0	6.4154E-10
1.1500E+5	1.0000E+0	7.1014E-7	1.0000E+0	6.4046E-10
1.1550E+5	1.0000E+0	7.1029E-7	1.0000E+0	6.4000E-10
1.1600E+5	1.0000E+0	7.1008E-7	1.0000E+0	6.3879E-10
1.1650E+5	1.0000E+0	7.1000E-7	1.0000E+0	6.3814E-10
1.1700E+5	1.0000E+0	7.0961E-7	1.0000E+0	6.3775E-10
1.1750E+5	1.0000E+0	7.0937E-7	1.0000E+0	6.3602E-10
1.1800E+5	1.0000E+0	7.0963E-7	1.0000E+0	6.3554E-10
1.1850E+5	1.0000E+0	7.0895E-7	1.0000E+0	6.3427E-10
1.1900E+5	1.0000E+0	7.0914E-7	1.0000E+0	6.3400E-10
1.1950E+5	1.0000E+0	7.0643E-7	1.0000E+0	6.3327E-10
1.2000E+5	1.0000E+0	7.0577E-7	1.0000E+0	6.3202E-10
1.2050E+5	1.0000E+0	7.0470E-7	1.0000E+0	6.3110E-10
1.2100E+5	1.0000E+0	7.0375E-7	1.0000E+0	3.7090E-11
1.2150E+5	1.0000E+0	7.0452E-7	1.0000E+0	4.9055E-12
1.2200E+5	1.0000E+0	7.0415E-7	1.0000E+0	3.8862E-12
1.2250E+5	1.0000E+0	7.0272E-7	1.0000E+0	3.9399E-12
1.2300E+5	1.0000E+0	7.0320E-7	1.0000E+0	3.6347E-12
1.2350E+5	1.0000E+0	7.0325E-7	1.0000E+0	3.8040E-12
1.2400E+5	1.0000E+0	7.0373E-7	1.0000E+0	3.7444E-12
1.2450E+5	1.0000E+0	7.0459E-7	1.0000E+0	3.9101E-12
1.2500E+5	1.0000E+0	7.0411E-7	1.0000E+0	3.4285E-12
1.2550E+5	1.0000E+0	7.0331E-7	1.0000E+0	3.6752E-12
1.2600E+5	1.0000E+0	7.0452E-7	1.0000E+0	3.6812E-12
1.2650E+5	1.0000E+0	7.0389E-7	1.0000E+0	3.7610E-12
1.2700E+5	1.0000E+0	7.0296E-7	1.0000E+0	3.6967E-12
1.2750E+5	1.0000E+0	7.0301E-7	1.0000E+0	3.8028E-12
1.2800E+5	1.0000E+0	7.0118E-7	1.0000E+0	3.5226E-12
1.2850E+5	1.0000E+0	7.0213E-7	1.0000E+0	3.8004E-12
1.2900E+5	1.0000E+0	7.0355E-7	1.0000E+0	3.8660E-12
1.2950E+5	1.0000E+0	7.0312E-7	1.0000E+0	3.8564E-12
1.3000E+5	1.0000E+0	7.0120E-7	1.0000E+0	3.6704E-12
1.3050E+5	1.0000E+0	6.9969E-7	1.0000E+0	3.7623E-12
1.3100E+5	1.0000E+0	7.0042E-7	1.0000E+0	6.2438E-10
1.3150E+5	1.0000E+0	7.0183E-7	1.0000E+0	6.2263E-10
1.3200E+5	1.0000E+0	7.0316E-7	1.0000E+0	6.2195E-10
1.3250E+5	1.0000E+0	7.0431E-7	1.0000E+0	6.2111E-10
1.3300E+5	1.0000E+0	7.0444E-7	1.0000E+0	6.1921E-10
1.3350E+5	1.0000E+0	7.0236E-7	1.0000E+0	6.1861E-10
1.3400E+5	1.0000E+0	7.0228E-7	1.0000E+0	6.1789E-10
1.3450E+5	1.0000E+0	7.0074E-7	1.0000E+0	6.1604E-10
1.3500E+5	1.0000E+0	6.9822E-7	1.0000E+0	6.1529E-10
1.3550E+5	1.0000E+0	6.9897E-7	1.0000E+0	6.1506E-10
1.3600E+5	1.0000E+0	6.9707E-7	1.0000E+0	6.1369E-10
1.3650E+5	1.0000E+0	6.9631E-7	1.0000E+0	6.1302E-10
1.3700E+5	1.0000E+0	6.9689E-7	1.0000E+0	6.1223E-10
1.3750E+5	1.0000E+0	6.9627E-7	1.0000E+0	6.1113E-10
1.3800E+5	1.0000E+0	6.9615E-7	1.0000E+0	6.1086E-10
1.3850E+5	1.0000E+0	6.9765E-7	1.0000E+0	6.0974E-10
1.3900E+5	1.0000E+0	6.9613E-7	1.0000E+0	6.0891E-10
1.3950E+5	1.0000E+0	6.9436E-7	1.0000E+0	6.0865E-10
1.4000E+5	1.0000E+0	6.9517E-7	1.0000E+0	6.0804E-10
1.4050E+5	1.0000E+0	6.9484E-7	1.0000E+0	6.0725E-10
1.4100E+5	1.0000E+0	6.9379E-7	1.0000E+0	4.5683E-11
1.4150E+5	1.0000E+0	6.9206E-7	1.0000E+0	5.7912E-12
1.4200E+5	1.0000E+0	6.9140E-7	1.0000E+0	3.3653E-12
1.4250E+5	1.0000E+0	6.9184E-7	1.0000E+0	3.6848E-12
1.4300E+5	1.0000E+0	6.9125E-7	1.0000E+0	3.3414E-12
1.4350E+5	1.0000E+0	6.8921E-7	1.0000E+0	3.5036E-12
1.4400E+5	1.0000E+0	6.8938E-7	1.0000E+0	3.0398E-12
1.4450E+5	1.0000E+0	6.8792E-7	1.0000E+0	3.3796E-12
1.4500E+5	1.0000E+0	6.8700E-7	1.0000E+0	3.4583E-12
1.4550E+5	1.0000E+0	6.8613E-7	1.0000E+0	3.2520E-12
1.4600E+5	1.0000E+0	6.8655E-7	1.0000E+0	3.7396E-12
1.4650E+5	1.0000E+0	6.8665E-7	1.0000E+0	3.3736E-12
1.4700E+5	1.0000E+0	6.8743E-7	1.0000E+0	3.4797E-12
1.4750E+5	1.0000E+0	6.8655E-7	1.0000E+0	3.4952E-12
1.4800E+5	1.0000E+0	6.8695E-7	1.0000E+0	3.2461E-12
1.4850E+5	1.0000E+0	6.8589E-7	1.0000E+0	3.5012E-12
1.4900E+5	1.0000E+0	6.8621E-7	1.0000E+0	3.2508E-12
1.4950E+5	1.0000E+0	6.8763E-7	1.0000E+0	3.3987E-12
1.5000E+5	1.0000E+0	6.8656E-7	1.0000E+0	3.6001E-12
1.5050E+5	1.0000E+0	6.8692E-7	1.0000E+0	3.4022E-12
1.5100E+5	1.0000E+0	6.8725E-7	1.0000E+0	3.3402E-12
1.5150E+5	1.0000E+0	6.8683E-7	1.0000E+0	3.9327E-12
1.5200E+5	1.0000E+0	6.8772E-7	1.0000E+0	3.4571E-12
1.5250E+5	1.0000E+0	6.8746E-7	1.0000E+0	3.5071E-12
1.5300E+5	1.0000E+0	6.8580E-7	1.0000E+0	3.5954E-12
1.5350E+5	1.0000E+0	6.8532E-7	1.0000E+0	3.4440E-12
1.5400E+5	1.0000E+0	6.8376E-7	1.0000E+0	3.6490E-12
1.5450E+5	1.0000E+0	6.8487E-7	1.0000E+0	4.1902E-12
1.5500E+5	1.0000E+0	6.8369E-7	1.0000E+0	3.2449E-12
1.5550E+5	1.0000E+0	6.8383E-7	1.0000E+0	3.3772E-12
1.5600E+5	1.0000E+0	6.8399E-7	1.0000E+0	3.7837E-12
1.5650E+5	1.0000E+0	6.8425E-7	1.0000E+0	3.9792E-12
1.5700E+5	1.0000E+0	6.8362E-7	1.0000E+0	3.7932E-12
1.5750E+5	1.0000E+0	6.8307E-7	1.0000E+0	3.6144E-12
1.5800E+5	1.0000E+0	6.8271E-7	1.0000E+0	3.4964E-12
1.5850E+5	1.0000E+0	6.8476E-7	1.0000E+0	3.7384E-12
1.5900E+5	1.0000E+0	6.8500E-7	1.0000E+0	3.6311E-12
1.5950E+5	1.0000E+0	6.8388E-7	1.0000E+0	3.6264E-12
1.6000E+5	1.0000E+0	6.8295E-7	1.0000E+0	4.2272E-12
1.6050E+5	1.0000E+0	6.8228E-7	1.0000E+0	3.7873E-12
1.6100E+5	1.0000E+0	6.8451E-7	1.0000E+0	3.7324E-12
1.6150E+5	1.0000E+0	6.8383E-7	1.0000E+0	3.8290E-12
