File Name: 15_Sample6_device1_It_150kV_200uA_VDrain1V_VGate2V.dat
File Data: 17/11/2023	14:08:25
Start V: 0
Step V: 0
Stop V: 0
Range V: 200
Delay(ms): 0
Auorange: yes
Sweep type: log
Instrument Meter: SM2614
Time(ms)	Vdrain(V)	Idrain(A)	Vgate(V)	Igate(A)
0.0000E+0	1.0000E+0	8.1606E-7	2.0000E+0	1.2405E-11
1.0000E+3	1.0000E+0	8.1223E-7	2.0000E+0	1.2631E-11
1.5000E+3	1.0000E+0	8.0569E-7	2.0000E+0	1.2114E-11
2.0000E+3	1.0000E+0	8.0361E-7	2.0000E+0	1.1374E-11
2.5000E+3	1.0000E+0	8.0026E-7	2.0000E+0	1.0823E-11
3.0000E+3	1.0000E+0	7.9922E-7	2.0000E+0	1.0498E-11
3.5000E+3	1.0000E+0	7.9857E-7	2.0000E+0	1.0239E-11
4.0000E+3	1.0000E+0	7.9687E-7	2.0000E+0	1.0210E-11
4.5000E+3	1.0000E+0	7.9529E-7	2.0000E+0	9.8181E-12
5.0000E+3	1.0000E+0	7.9370E-7	2.0000E+0	9.7251E-12
5.5000E+3	1.0000E+0	7.9325E-7	2.0000E+0	9.3245E-12
6.0000E+3	1.0000E+0	7.9185E-7	2.0000E+0	9.3150E-12
6.5000E+3	1.0000E+0	7.8850E-7	2.0000E+0	9.2340E-12
7.0000E+3	1.0000E+0	7.8663E-7	2.0000E+0	9.3627E-12
7.5000E+3	1.0000E+0	7.8720E-7	2.0000E+0	9.1267E-12
8.0000E+3	1.0000E+0	7.8676E-7	2.0000E+0	8.8847E-12
8.5000E+3	1.0000E+0	7.8513E-7	2.0000E+0	8.8394E-12
9.0000E+3	1.0000E+0	7.8401E-7	2.0000E+0	8.8501E-12
9.5000E+3	1.0000E+0	7.8291E-7	2.0000E+0	8.7595E-12
1.0000E+4	1.0000E+0	7.8319E-7	2.0000E+0	8.7011E-12
1.0500E+4	1.0000E+0	7.8264E-7	2.0000E+0	8.5592E-12
1.1000E+4	1.0000E+0	7.8113E-7	2.0000E+0	8.5795E-12
1.1500E+4	1.0000E+0	7.8190E-7	2.0000E+0	8.4579E-12
1.2000E+4	1.0000E+0	7.8221E-7	2.0000E+0	8.5986E-12
1.2500E+4	1.0000E+0	7.7850E-7	2.0000E+0	8.5008E-12
1.3000E+4	1.0000E+0	7.7848E-7	2.0000E+0	8.1611E-12
1.3500E+4	1.0000E+0	7.7862E-7	2.0000E+0	8.2946E-12
1.4000E+4	1.0000E+0	7.7840E-7	2.0000E+0	8.3470E-12
1.4500E+4	1.0000E+0	7.7705E-7	2.0000E+0	8.0621E-12
1.5000E+4	1.0000E+0	7.7577E-7	2.0000E+0	8.0252E-12
1.5500E+4	1.0000E+0	7.7577E-7	2.0000E+0	8.0550E-12
1.6000E+4	1.0000E+0	7.7643E-7	2.0000E+0	7.8332E-12
1.6500E+4	1.0000E+0	7.7630E-7	2.0000E+0	8.0919E-12
1.7000E+4	1.0000E+0	7.7398E-7	2.0000E+0	7.9203E-12
1.7500E+4	1.0000E+0	7.7369E-7	2.0000E+0	8.1551E-12
1.8000E+4	1.0000E+0	7.7154E-7	2.0000E+0	8.0335E-12
1.8500E+4	1.0000E+0	7.7252E-7	2.0000E+0	7.9668E-12
1.9000E+4	1.0000E+0	7.7089E-7	2.0000E+0	8.0001E-12
1.9500E+4	1.0000E+0	7.7092E-7	2.0000E+0	7.7653E-12
2.0000E+4	1.0000E+0	7.7103E-7	2.0000E+0	7.9393E-12
2.0500E+4	1.0000E+0	7.7016E-7	2.0000E+0	8.0001E-12
2.1000E+4	1.0000E+0	7.7032E-7	2.0000E+0	7.8058E-12
2.1500E+4	1.0000E+0	7.6795E-7	2.0000E+0	7.8297E-12
2.2000E+4	1.0000E+0	7.6760E-7	2.0000E+0	7.6854E-12
2.2500E+4	1.0000E+0	7.6927E-7	2.0000E+0	7.9298E-12
2.3000E+4	1.0000E+0	7.6900E-7	2.0000E+0	7.9942E-12
2.3500E+4	1.0000E+0	7.6936E-7	2.0000E+0	7.8440E-12
2.4000E+4	1.0000E+0	7.6948E-7	2.0000E+0	7.9048E-12
2.4500E+4	1.0000E+0	7.6940E-7	2.0000E+0	7.9751E-12
2.5000E+4	1.0000E+0	7.6752E-7	2.0000E+0	7.6222E-12
2.5500E+4	1.0000E+0	7.6597E-7	2.0000E+0	7.6282E-12
2.6000E+4	1.0000E+0	7.6542E-7	2.0000E+0	7.6199E-12
2.6500E+4	1.0000E+0	7.6437E-7	2.0000E+0	7.9954E-12
2.7000E+4	1.0000E+0	7.6360E-7	2.0000E+0	7.7903E-12
2.7500E+4	1.0000E+0	7.6306E-7	2.0000E+0	7.7295E-12
2.8000E+4	1.0000E+0	7.6311E-7	2.0000E+0	7.7534E-12
2.8500E+4	1.0000E+0	7.6325E-7	2.0000E+0	7.7164E-12
2.9000E+4	1.0000E+0	7.6374E-7	2.0000E+0	7.6866E-12
2.9500E+4	1.0000E+0	7.6336E-7	2.0000E+0	7.8440E-12
3.0000E+4	1.0000E+0	7.6243E-7	2.0000E+0	7.8022E-12
3.0500E+4	1.0000E+0	7.6282E-7	2.0000E+0	7.9632E-12
3.1000E+4	1.0000E+0	7.5977E-7	2.0000E+0	7.7569E-12
3.1500E+4	1.0000E+0	7.6016E-7	2.0000E+0	7.7224E-12
3.2000E+4	1.0000E+0	7.6082E-7	2.0000E+0	7.4482E-12
3.2500E+4	1.0000E+0	7.5970E-7	2.0000E+0	7.6795E-12
3.3000E+4	1.0000E+0	7.6066E-7	2.0000E+0	7.6306E-12
3.3500E+4	1.0000E+0	7.6038E-7	2.0000E+0	7.7355E-12
3.4000E+4	1.0000E+0	7.6044E-7	2.0000E+0	7.7844E-12
3.4500E+4	1.0000E+0	7.5749E-7	2.0000E+0	7.9298E-12
3.5000E+4	1.0000E+0	7.5807E-7	2.0000E+0	7.7450E-12
3.5500E+4	1.0000E+0	7.5746E-7	2.0000E+0	7.8988E-12
3.6000E+4	1.0000E+0	7.5525E-7	2.0000E+0	7.6902E-12
3.6500E+4	1.0000E+0	7.5508E-7	2.0000E+0	7.6342E-12
3.7000E+4	1.0000E+0	7.5343E-7	2.0000E+0	7.6687E-12
3.7500E+4	1.0000E+0	7.5242E-7	2.0000E+0	7.4196E-12
3.8000E+4	1.0000E+0	7.5251E-7	2.0000E+0	7.8082E-12
3.8500E+4	1.0000E+0	7.5329E-7	2.0000E+0	7.7093E-12
3.9000E+4	1.0000E+0	7.5276E-7	2.0000E+0	7.7057E-12
3.9500E+4	1.0000E+0	7.5379E-7	2.0000E+0	7.6413E-12
4.0000E+4	1.0000E+0	7.5401E-7	2.0000E+0	7.5007E-12
4.0500E+4	1.0000E+0	7.5314E-7	2.0000E+0	7.6652E-12
4.1000E+4	1.0000E+0	7.5392E-7	2.0000E+0	7.6056E-12
4.1500E+4	1.0000E+0	7.5357E-7	2.0000E+0	7.9226E-12
4.2000E+4	1.0000E+0	7.5222E-7	2.0000E+0	7.6616E-12
4.2500E+4	1.0000E+0	7.5016E-7	2.0000E+0	7.4696E-12
4.3000E+4	1.0000E+0	7.4995E-7	2.0000E+0	7.6127E-12
4.3500E+4	1.0000E+0	7.5124E-7	2.0000E+0	7.5424E-12
4.4000E+4	1.0000E+0	7.5041E-7	2.0000E+0	7.5913E-12
4.4500E+4	1.0000E+0	7.4832E-7	2.0000E+0	7.5114E-12
4.5000E+4	1.0000E+0	7.4861E-7	2.0000E+0	7.3624E-12
4.5500E+4	1.0000E+0	7.4804E-7	2.0000E+0	7.5281E-12
4.6000E+4	1.0000E+0	7.4706E-7	2.0000E+0	7.6175E-12
4.6500E+4	1.0000E+0	7.4597E-7	2.0000E+0	7.3826E-12
4.7000E+4	1.0000E+0	7.4660E-7	2.0000E+0	7.4398E-12
4.7500E+4	1.0000E+0	7.4563E-7	2.0000E+0	7.5364E-12
4.8000E+4	1.0000E+0	7.4611E-7	2.0000E+0	7.4613E-12
4.8500E+4	1.0000E+0	7.4666E-7	2.0000E+0	7.2312E-12
4.9000E+4	1.0000E+0	7.4516E-7	2.0000E+0	7.5746E-12
4.9500E+4	1.0000E+0	7.4645E-7	2.0000E+0	7.2908E-12
5.0000E+4	1.0000E+0	7.4634E-7	2.0000E+0	7.2992E-12
5.0500E+4	1.0000E+0	7.4778E-7	2.0000E+0	7.4828E-12
5.1000E+4	1.0000E+0	7.4755E-7	2.0000E+0	7.3481E-12
5.1500E+4	1.0000E+0	7.4616E-7	2.0000E+0	7.4911E-12
5.2000E+4	1.0000E+0	7.4487E-7	2.0000E+0	7.7045E-12
5.2500E+4	1.0000E+0	7.4235E-7	2.0000E+0	7.4792E-12
5.3000E+4	1.0000E+0	7.4014E-7	2.0000E+0	7.3492E-12
5.3500E+4	1.0000E+0	7.4127E-7	2.0000E+0	7.3528E-12
5.4000E+4	1.0000E+0	7.4144E-7	2.0000E+0	7.2765E-12
5.4500E+4	1.0000E+0	7.4001E-7	2.0000E+0	7.3302E-12
5.5000E+4	1.0000E+0	7.4096E-7	2.0000E+0	7.6544E-12
5.5500E+4	1.0000E+0	7.4034E-7	2.0000E+0	7.0977E-12
5.6000E+4	1.0000E+0	7.3994E-7	2.0000E+0	7.3564E-12
5.6500E+4	1.0000E+0	7.3999E-7	2.0000E+0	7.3111E-12
5.7000E+4	1.0000E+0	7.3890E-7	2.0000E+0	7.3516E-12
5.7500E+4	1.0000E+0	7.3787E-7	2.0000E+0	7.2265E-12
5.8000E+4	1.0000E+0	7.3883E-7	2.0000E+0	7.3397E-12
5.8500E+4	1.0000E+0	7.3834E-7	2.0000E+0	7.4804E-12
5.9000E+4	1.0000E+0	7.3822E-7	2.0000E+0	7.5507E-12
5.9500E+4	1.0000E+0	7.3741E-7	2.0000E+0	7.6604E-12
6.0000E+4	1.0000E+0	7.3752E-7	2.0000E+0	7.6902E-12
6.0500E+4	1.0000E+0	7.3686E-7	2.0000E+0	7.4184E-12
6.1000E+4	1.0000E+0	7.3597E-7	2.0000E+0	7.4673E-12
6.1500E+4	1.0000E+0	7.3867E-7	2.0000E+0	7.5042E-12
6.2000E+4	1.0000E+0	7.3645E-7	2.0000E+0	7.1847E-12
6.2500E+4	1.0000E+0	7.3898E-7	2.0000E+0	7.5960E-12
6.3000E+4	1.0000E+0	7.3867E-7	2.0000E+0	7.4518E-12
6.3500E+4	1.0000E+0	7.3651E-7	2.0000E+0	7.7832E-12
6.4000E+4	1.0000E+0	7.3586E-7	2.0000E+0	7.5471E-12
6.4500E+4	1.0000E+0	7.3691E-7	2.0000E+0	7.6711E-12
6.5000E+4	1.0000E+0	7.3657E-7	2.0000E+0	7.5758E-12
6.5500E+4	1.0000E+0	7.3744E-7	2.0000E+0	7.5424E-12
6.6000E+4	1.0000E+0	7.3453E-7	2.0000E+0	7.7283E-12
6.6500E+4	1.0000E+0	7.3475E-7	2.0000E+0	7.7510E-12
6.7000E+4	1.0000E+0	7.3397E-7	2.0000E+0	7.7307E-12
6.7500E+4	1.0000E+0	7.3496E-7	2.0000E+0	7.6616E-12
6.8000E+4	1.0000E+0	7.3433E-7	2.0000E+0	7.4649E-12
6.8500E+4	1.0000E+0	7.3267E-7	2.0000E+0	7.7629E-12
6.9000E+4	1.0000E+0	7.3535E-7	2.0000E+0	7.4756E-12
6.9500E+4	1.0000E+0	7.3510E-7	2.0000E+0	7.5841E-12
7.0000E+4	1.0000E+0	7.3404E-7	2.0000E+0	7.4875E-12
7.0500E+4	1.0000E+0	7.3546E-7	2.0000E+0	6.9976E-10
7.1000E+4	1.0000E+0	7.3313E-7	2.0000E+0	7.0149E-10
7.1500E+4	1.0000E+0	7.3273E-7	2.0000E+0	7.0311E-10
7.2000E+4	1.0000E+0	7.3128E-7	2.0000E+0	7.0316E-10
7.2500E+4	1.0000E+0	7.3207E-7	2.0000E+0	7.0360E-10
7.3000E+4	1.0000E+0	7.3128E-7	2.0000E+0	7.0343E-10
7.3500E+4	1.0000E+0	7.2884E-7	2.0000E+0	7.0315E-10
7.4000E+4	1.0000E+0	7.2607E-7	2.0000E+0	7.0359E-10
7.4500E+4	1.0000E+0	7.2691E-7	2.0000E+0	7.0288E-10
7.5000E+4	1.0000E+0	7.2564E-7	2.0000E+0	7.0270E-10
7.5500E+4	1.0000E+0	7.2398E-7	2.0000E+0	7.0245E-10
7.6000E+4	1.0000E+0	7.2506E-7	2.0000E+0	7.0225E-10
7.6500E+4	1.0000E+0	7.2384E-7	2.0000E+0	7.0162E-10
7.7000E+4	1.0000E+0	7.2406E-7	2.0000E+0	7.0178E-10
7.7500E+4	1.0000E+0	7.2285E-7	2.0000E+0	7.0127E-10
7.8000E+4	1.0000E+0	7.2067E-7	2.0000E+0	7.0108E-10
7.8500E+4	1.0000E+0	7.2047E-7	2.0000E+0	7.0077E-10
7.9000E+4	1.0000E+0	7.2024E-7	2.0000E+0	7.0041E-10
7.9500E+4	1.0000E+0	7.1560E-7	2.0000E+0	7.0035E-10
8.0000E+4	1.0000E+0	7.1587E-7	2.0000E+0	6.9980E-10
8.0500E+4	1.0000E+0	7.1640E-7	2.0000E+0	1.0409E-10
8.1000E+4	1.0000E+0	7.1565E-7	2.0000E+0	1.3106E-11
8.1500E+4	1.0000E+0	7.1298E-7	2.0000E+0	7.7569E-12
8.2000E+4	1.0000E+0	7.1474E-7	2.0000E+0	7.4732E-12
8.2500E+4	1.0000E+0	7.1344E-7	2.0000E+0	7.4780E-12
8.3000E+4	1.0000E+0	7.1417E-7	2.0000E+0	7.5436E-12
8.3500E+4	1.0000E+0	7.1331E-7	2.0000E+0	7.2730E-12
8.4000E+4	1.0000E+0	7.1397E-7	2.0000E+0	7.3183E-12
8.4500E+4	1.0000E+0	7.1295E-7	2.0000E+0	7.3600E-12
8.5000E+4	1.0000E+0	7.1215E-7	2.0000E+0	7.5531E-12
8.5500E+4	1.0000E+0	7.1111E-7	2.0000E+0	7.0834E-12
8.6000E+4	1.0000E+0	7.1056E-7	2.0000E+0	7.3624E-12
8.6500E+4	1.0000E+0	7.1230E-7	2.0000E+0	7.5388E-12
8.7000E+4	1.0000E+0	7.1091E-7	2.0000E+0	7.5388E-12
8.7500E+4	1.0000E+0	7.1025E-7	2.0000E+0	7.6509E-12
8.8000E+4	1.0000E+0	7.1027E-7	2.0000E+0	7.3111E-12
8.8500E+4	1.0000E+0	7.1166E-7	2.0000E+0	7.4971E-12
8.9000E+4	1.0000E+0	7.1082E-7	2.0000E+0	7.7391E-12
8.9500E+4	1.0000E+0	7.0900E-7	2.0000E+0	7.7307E-12
9.0000E+4	1.0000E+0	7.0988E-7	2.0000E+0	7.4422E-12
9.0500E+4	1.0000E+0	7.0910E-7	2.0000E+0	6.9020E-10
9.1000E+4	1.0000E+0	7.0940E-7	2.0000E+0	6.9731E-10
9.1500E+4	1.0000E+0	7.0857E-7	2.0000E+0	7.0141E-10
9.2000E+4	1.0000E+0	7.0787E-7	2.0000E+0	7.0127E-10
9.2500E+4	1.0000E+0	7.0750E-7	2.0000E+0	7.0038E-10
9.3000E+4	1.0000E+0	7.0827E-7	2.0000E+0	6.9982E-10
9.3500E+4	1.0000E+0	7.0687E-7	2.0000E+0	6.9933E-10
9.4000E+4	1.0000E+0	7.0543E-7	2.0000E+0	6.9916E-10
9.4500E+4	1.0000E+0	7.0313E-7	2.0000E+0	6.9854E-10
9.5000E+4	1.0000E+0	7.0138E-7	2.0000E+0	6.9918E-10
9.5500E+4	1.0000E+0	7.0283E-7	2.0000E+0	6.9848E-10
9.6000E+4	1.0000E+0	7.0364E-7	2.0000E+0	6.9864E-10
9.6500E+4	1.0000E+0	7.0220E-7	2.0000E+0	6.9894E-10
9.7000E+4	1.0000E+0	7.0222E-7	2.0000E+0	6.9877E-10
9.7500E+4	1.0000E+0	6.9965E-7	2.0000E+0	6.9786E-10
9.8000E+4	1.0000E+0	6.9727E-7	2.0000E+0	6.9771E-10
9.8500E+4	1.0000E+0	6.9505E-7	2.0000E+0	6.9765E-10
9.9000E+4	1.0000E+0	6.9393E-7	2.0000E+0	6.9799E-10
9.9500E+4	1.0000E+0	6.9346E-7	2.0000E+0	6.9720E-10
1.0000E+5	1.0000E+0	6.9283E-7	2.0000E+0	6.9716E-10
1.0050E+5	1.0000E+0	6.9136E-7	2.0000E+0	1.3729E-10
1.0100E+5	1.0000E+0	6.9004E-7	2.0000E+0	1.3610E-11
1.0150E+5	1.0000E+0	6.9043E-7	2.0000E+0	7.9179E-12
1.0200E+5	1.0000E+0	6.9173E-7	2.0000E+0	7.4935E-12
1.0250E+5	1.0000E+0	6.8915E-7	2.0000E+0	7.2932E-12
1.0300E+5	1.0000E+0	6.8709E-7	2.0000E+0	7.2253E-12
1.0350E+5	1.0000E+0	6.8847E-7	2.0000E+0	7.1371E-12
1.0400E+5	1.0000E+0	6.8716E-7	2.0000E+0	7.2634E-12
1.0450E+5	1.0000E+0	6.8672E-7	2.0000E+0	7.3123E-12
1.0500E+5	1.0000E+0	6.8691E-7	2.0000E+0	7.2086E-12
1.0550E+5	1.0000E+0	6.8727E-7	2.0000E+0	7.2575E-12
1.0600E+5	1.0000E+0	6.8586E-7	2.0000E+0	7.1693E-12
1.0650E+5	1.0000E+0	6.8518E-7	2.0000E+0	7.0775E-12
1.0700E+5	1.0000E+0	6.8442E-7	2.0000E+0	7.3194E-12
1.0750E+5	1.0000E+0	6.8397E-7	2.0000E+0	6.9106E-12
1.0800E+5	1.0000E+0	6.8222E-7	2.0000E+0	7.0238E-12
1.0850E+5	1.0000E+0	6.8327E-7	2.0000E+0	7.1597E-12
1.0900E+5	1.0000E+0	6.8382E-7	2.0000E+0	7.0667E-12
1.0950E+5	1.0000E+0	6.8283E-7	2.0000E+0	7.3052E-12
1.1000E+5	1.0000E+0	6.8413E-7	2.0000E+0	7.0584E-12
1.1050E+5	1.0000E+0	6.8414E-7	2.0000E+0	6.6966E-10
1.1100E+5	1.0000E+0	6.8663E-7	2.0000E+0	6.9430E-10
1.1150E+5	1.0000E+0	6.8718E-7	2.0000E+0	6.9577E-10
1.1200E+5	1.0000E+0	6.8565E-7	2.0000E+0	6.9813E-10
1.1250E+5	1.0000E+0	6.8455E-7	2.0000E+0	6.9768E-10
1.1300E+5	1.0000E+0	6.8544E-7	2.0000E+0	6.9715E-10
1.1350E+5	1.0000E+0	6.8404E-7	2.0000E+0	6.9696E-10
1.1400E+5	1.0000E+0	6.8443E-7	2.0000E+0	6.9611E-10
1.1450E+5	1.0000E+0	6.8484E-7	2.0000E+0	6.9619E-10
1.1500E+5	1.0000E+0	6.8519E-7	2.0000E+0	6.9599E-10
1.1550E+5	1.0000E+0	6.8239E-7	2.0000E+0	6.9541E-10
1.1600E+5	1.0000E+0	6.8043E-7	2.0000E+0	6.9566E-10
1.1650E+5	1.0000E+0	6.8013E-7	2.0000E+0	6.9541E-10
1.1700E+5	1.0000E+0	6.7763E-7	2.0000E+0	6.9504E-10
1.1750E+5	1.0000E+0	6.7870E-7	2.0000E+0	6.9430E-10
1.1800E+5	1.0000E+0	6.7766E-7	2.0000E+0	6.9403E-10
1.1850E+5	1.0000E+0	6.7682E-7	2.0000E+0	6.9408E-10
1.1900E+5	1.0000E+0	6.7594E-7	2.0000E+0	6.9337E-10
1.1950E+5	1.0000E+0	6.7470E-7	2.0000E+0	6.9388E-10
1.2000E+5	1.0000E+0	6.7282E-7	2.0000E+0	6.9382E-10
1.2050E+5	1.0000E+0	6.7026E-7	2.0000E+0	2.0962E-10
1.2100E+5	1.0000E+0	6.6960E-7	2.0000E+0	1.4526E-11
1.2150E+5	1.0000E+0	6.6953E-7	2.0000E+0	7.8583E-12
1.2200E+5	1.0000E+0	6.6885E-7	2.0000E+0	7.0715E-12
1.2250E+5	1.0000E+0	6.6965E-7	2.0000E+0	6.7520E-12
1.2300E+5	1.0000E+0	6.6937E-7	2.0000E+0	6.9237E-12
1.2350E+5	1.0000E+0	6.6965E-7	2.0000E+0	6.8581E-12
1.2400E+5	1.0000E+0	6.7021E-7	2.0000E+0	6.7711E-12
1.2450E+5	1.0000E+0	6.6798E-7	2.0000E+0	7.1657E-12
1.2500E+5	1.0000E+0	6.6950E-7	2.0000E+0	6.8223E-12
1.2550E+5	1.0000E+0	6.6716E-7	2.0000E+0	6.7365E-12
1.2600E+5	1.0000E+0	6.6771E-7	2.0000E+0	6.7472E-12
1.2650E+5	1.0000E+0	6.6694E-7	2.0000E+0	6.9284E-12
1.2700E+5	1.0000E+0	6.6745E-7	2.0000E+0	7.0274E-12
1.2750E+5	1.0000E+0	6.6918E-7	2.0000E+0	7.0977E-12
1.2800E+5	1.0000E+0	6.6914E-7	2.0000E+0	7.1466E-12
1.2850E+5	1.0000E+0	6.6840E-7	2.0000E+0	7.0035E-12
1.2900E+5	1.0000E+0	6.7041E-7	2.0000E+0	7.0775E-12
1.2950E+5	1.0000E+0	6.6942E-7	2.0000E+0	6.9785E-12
1.3000E+5	1.0000E+0	6.6804E-7	2.0000E+0	7.1037E-12
1.3050E+5	1.0000E+0	6.6958E-7	2.0000E+0	6.2318E-10
1.3100E+5	1.0000E+0	6.6939E-7	2.0000E+0	6.9388E-10
1.3150E+5	1.0000E+0	6.6740E-7	2.0000E+0	6.9090E-10
1.3200E+5	1.0000E+0	6.6674E-7	2.0000E+0	6.9365E-10
1.3250E+5	1.0000E+0	6.6487E-7	2.0000E+0	6.9292E-10
1.3300E+5	1.0000E+0	6.6589E-7	2.0000E+0	6.9245E-10
1.3350E+5	1.0000E+0	6.6719E-7	2.0000E+0	6.9178E-10
1.3400E+5	1.0000E+0	6.6591E-7	2.0000E+0	6.9239E-10
1.3450E+5	1.0000E+0	6.6588E-7	2.0000E+0	6.9151E-10
1.3500E+5	1.0000E+0	6.6487E-7	2.0000E+0	6.9085E-10
1.3550E+5	1.0000E+0	6.6360E-7	2.0000E+0	6.9108E-10
1.3600E+5	1.0000E+0	6.6164E-7	2.0000E+0	6.9097E-10
1.3650E+5	1.0000E+0	6.6068E-7	2.0000E+0	6.9109E-10
1.3700E+5	1.0000E+0	6.5903E-7	2.0000E+0	6.9102E-10
1.3750E+5	1.0000E+0	6.5843E-7	2.0000E+0	6.9059E-10
1.3800E+5	1.0000E+0	6.5871E-7	2.0000E+0	6.9068E-10
1.3850E+5	1.0000E+0	6.5707E-7	2.0000E+0	6.9071E-10
1.3900E+5	1.0000E+0	6.5635E-7	2.0000E+0	6.9130E-10
1.3950E+5	1.0000E+0	6.5438E-7	2.0000E+0	6.9028E-10
1.4000E+5	1.0000E+0	6.5330E-7	2.0000E+0	6.8986E-10
1.4050E+5	1.0000E+0	6.5221E-7	2.0000E+0	2.9859E-10
1.4100E+5	1.0000E+0	6.5122E-7	2.0000E+0	1.6483E-11
1.4150E+5	1.0000E+0	6.5033E-7	2.0000E+0	8.8596E-12
1.4200E+5	1.0000E+0	6.4852E-7	2.0000E+0	7.7558E-12
1.4250E+5	1.0000E+0	6.4837E-7	2.0000E+0	7.6115E-12
1.4300E+5	1.0000E+0	6.4908E-7	2.0000E+0	7.7176E-12
1.4350E+5	1.0000E+0	6.4930E-7	2.0000E+0	7.8082E-12
1.4400E+5	1.0000E+0	6.4954E-7	2.0000E+0	7.5948E-12
1.4450E+5	1.0000E+0	6.4872E-7	2.0000E+0	7.2336E-12
1.4500E+5	1.0000E+0	6.4941E-7	2.0000E+0	7.6115E-12
1.4550E+5	1.0000E+0	6.5155E-7	2.0000E+0	7.4923E-12
1.4600E+5	1.0000E+0	6.4950E-7	2.0000E+0	7.6461E-12
1.4650E+5	1.0000E+0	6.4973E-7	2.0000E+0	7.8487E-12
1.4700E+5	1.0000E+0	6.5080E-7	2.0000E+0	7.7236E-12
1.4750E+5	1.0000E+0	6.4908E-7	2.0000E+0	7.7391E-12
1.4800E+5	1.0000E+0	6.5092E-7	2.0000E+0	7.6437E-12
1.4850E+5	1.0000E+0	6.5045E-7	2.0000E+0	7.8356E-12
1.4900E+5	1.0000E+0	6.5149E-7	2.0000E+0	7.5710E-12
1.4950E+5	1.0000E+0	6.4983E-7	2.0000E+0	7.4911E-12
1.5000E+5	1.0000E+0	6.4991E-7	2.0000E+0	7.6377E-12
1.5050E+5	1.0000E+0	6.5137E-7	2.0000E+0	7.6306E-12
1.5100E+5	1.0000E+0	6.5102E-7	2.0000E+0	7.6377E-12
1.5150E+5	1.0000E+0	6.5064E-7	2.0000E+0	7.5996E-12
1.5200E+5	1.0000E+0	6.4973E-7	2.0000E+0	7.4995E-12
1.5250E+5	1.0000E+0	6.5144E-7	2.0000E+0	7.4542E-12
1.5300E+5	1.0000E+0	6.5297E-7	2.0000E+0	7.5245E-12
1.5350E+5	1.0000E+0	6.5140E-7	2.0000E+0	7.3588E-12
1.5400E+5	1.0000E+0	6.5095E-7	2.0000E+0	7.5781E-12
1.5450E+5	1.0000E+0	6.5113E-7	2.0000E+0	7.3361E-12
1.5500E+5	1.0000E+0	6.5043E-7	2.0000E+0	7.6747E-12
1.5550E+5	1.0000E+0	6.5007E-7	2.0000E+0	7.6520E-12
1.5600E+5	1.0000E+0	6.5065E-7	2.0000E+0	7.2980E-12
1.5650E+5	1.0000E+0	6.4953E-7	2.0000E+0	7.3862E-12
1.5700E+5	1.0000E+0	6.4877E-7	2.0000E+0	7.5984E-12
1.5750E+5	1.0000E+0	6.4840E-7	2.0000E+0	7.4041E-12
1.5800E+5	1.0000E+0	6.5127E-7	2.0000E+0	7.3898E-12
1.5850E+5	1.0000E+0	6.5248E-7	2.0000E+0	7.5579E-12
1.5900E+5	1.0000E+0	6.5103E-7	2.0000E+0	7.5149E-12
1.5950E+5	1.0000E+0	6.5150E-7	2.0000E+0	7.3826E-12
1.6000E+5	1.0000E+0	6.5129E-7	2.0000E+0	7.6246E-12
1.6050E+5	1.0000E+0	6.5151E-7	2.0000E+0	7.5245E-12
1.6100E+5	1.0000E+0	6.5032E-7	2.0000E+0	7.2324E-12
1.6150E+5	1.0000E+0	6.5024E-7	2.0000E+0	7.6079E-12
1.6200E+5	1.0000E+0	6.5084E-7	2.0000E+0	7.4303E-12
1.6250E+5	1.0000E+0	6.5190E-7	2.0000E+0	7.4709E-12
1.6300E+5	1.0000E+0	6.5182E-7	2.0000E+0	7.4685E-12
1.6350E+5	1.0000E+0	6.5279E-7	2.0000E+0	7.4089E-12
1.6400E+5	1.0000E+0	6.5257E-7	2.0000E+0	7.6759E-12
1.6450E+5	1.0000E+0	6.5153E-7	2.0000E+0	7.4840E-12
1.6500E+5	1.0000E+0	6.5135E-7	2.0000E+0	7.5376E-12
1.6550E+5	1.0000E+0	6.5004E-7	2.0000E+0	7.4732E-12
1.6600E+5	1.0000E+0	6.5174E-7	2.0000E+0	7.4256E-12
1.6650E+5	1.0000E+0	6.5149E-7	2.0000E+0	7.6318E-12
1.6700E+5	1.0000E+0	6.5266E-7	2.0000E+0	7.5197E-12
1.6750E+5	1.0000E+0	6.5257E-7	2.0000E+0	7.7343E-12
1.6800E+5	1.0000E+0	6.5261E-7	2.0000E+0	7.4470E-12
1.6850E+5	1.0000E+0	6.5117E-7	2.0000E+0	7.3528E-12
1.6900E+5	1.0000E+0	6.5196E-7	2.0000E+0	7.4768E-12
1.6950E+5	1.0000E+0	6.5209E-7	2.0000E+0	7.6354E-12
1.7000E+5	1.0000E+0	6.5210E-7	2.0000E+0	7.6056E-12
1.7050E+5	1.0000E+0	6.5359E-7	2.0000E+0	7.4792E-12
1.7100E+5	1.0000E+0	6.5233E-7	2.0000E+0	7.7236E-12
1.7150E+5	1.0000E+0	6.5331E-7	2.0000E+0	7.7903E-12
1.7200E+5	1.0000E+0	6.5259E-7	2.0000E+0	7.4363E-12
1.7250E+5	1.0000E+0	6.5146E-7	2.0000E+0	7.7474E-12
1.7300E+5	1.0000E+0	6.4892E-7	2.0000E+0	7.2491E-12
1.7350E+5	1.0000E+0	6.5009E-7	2.0000E+0	7.5161E-12
1.7400E+5	1.0000E+0	6.5017E-7	2.0000E+0	7.4279E-12
1.7450E+5	1.0000E+0	6.5128E-7	2.0000E+0	7.4029E-12
1.7500E+5	1.0000E+0	6.5078E-7	2.0000E+0	7.4875E-12
1.7550E+5	1.0000E+0	6.5233E-7	2.0000E+0	7.3779E-12
1.7600E+5	1.0000E+0	6.4997E-7	2.0000E+0	7.4851E-12
1.7650E+5	1.0000E+0	6.5121E-7	2.0000E+0	7.7546E-12
1.7700E+5	1.0000E+0	6.5182E-7	2.0000E+0	7.6437E-12
1.7750E+5	1.0000E+0	6.5134E-7	2.0000E+0	7.4935E-12
1.7800E+5	1.0000E+0	6.5195E-7	2.0000E+0	7.5781E-12
1.7850E+5	1.0000E+0	6.5097E-7	2.0000E+0	7.5710E-12
1.7900E+5	1.0000E+0	6.5071E-7	2.0000E+0	7.2455E-12
1.7950E+5	1.0000E+0	6.5159E-7	2.0000E+0	7.4339E-12
1.8000E+5	1.0000E+0	6.5109E-7	2.0000E+0	7.4756E-12
1.8050E+5	1.0000E+0	6.5075E-7	2.0000E+0	7.6950E-12
1.8100E+5	1.0000E+0	6.4872E-7	2.0000E+0	7.6294E-12
1.8150E+5	1.0000E+0	6.5010E-7	2.0000E+0	7.4554E-12
1.8200E+5	1.0000E+0	6.5143E-7	2.0000E+0	7.6723E-12
1.8250E+5	1.0000E+0	6.5143E-7	2.0000E+0	7.6509E-12
1.8300E+5	1.0000E+0	6.5111E-7	2.0000E+0	7.6425E-12
1.8350E+5	1.0000E+0	6.5180E-7	2.0000E+0	7.4291E-12
1.8400E+5	1.0000E+0	6.5315E-7	2.0000E+0	7.5710E-12
1.8450E+5	1.0000E+0	6.5185E-7	2.0000E+0	7.4661E-12
1.8500E+5	1.0000E+0	6.5188E-7	2.0000E+0	7.7033E-12
1.8550E+5	1.0000E+0	6.5265E-7	2.0000E+0	7.6342E-12
1.8600E+5	1.0000E+0	6.5140E-7	2.0000E+0	7.8189E-12
1.8650E+5	1.0000E+0	6.5299E-7	2.0000E+0	7.4398E-12
1.8700E+5	1.0000E+0	6.5285E-7	2.0000E+0	7.6354E-12
1.8750E+5	1.0000E+0	6.5356E-7	2.0000E+0	7.5889E-12
1.8800E+5	1.0000E+0	6.5080E-7	2.0000E+0	7.5483E-12
1.8850E+5	1.0000E+0	6.5331E-7	2.0000E+0	7.5602E-12
1.8900E+5	1.0000E+0	6.5262E-7	2.0000E+0	7.5924E-12
1.8950E+5	1.0000E+0	6.5319E-7	2.0000E+0	7.6151E-12
1.9000E+5	1.0000E+0	6.5405E-7	2.0000E+0	7.8046E-12
1.9050E+5	1.0000E+0	6.5383E-7	2.0000E+0	7.5996E-12
1.9100E+5	1.0000E+0	6.5436E-7	2.0000E+0	7.5114E-12
1.9150E+5	1.0000E+0	6.5389E-7	2.0000E+0	7.3552E-12
1.9200E+5	1.0000E+0	6.5442E-7	2.0000E+0	5.2041E-10
1.9250E+5	1.0000E+0	6.5426E-7	2.0000E+0	6.9389E-10
1.9300E+5	1.0000E+0	6.5463E-7	2.0000E+0	6.9310E-10
1.9350E+5	1.0000E+0	6.5596E-7	2.0000E+0	6.8573E-10
1.9400E+5	1.0000E+0	6.5493E-7	2.0000E+0	6.8561E-10
1.9450E+5	1.0000E+0	6.5487E-7	2.0000E+0	6.8485E-10
1.9550E+5	1.0000E+0	6.5341E-7	2.0000E+0	6.8463E-10
1.9600E+5	1.0000E+0	6.5476E-7	2.0000E+0	6.8432E-10
1.9650E+5	1.0000E+0	6.5219E-7	2.0000E+0	6.8417E-10
1.9700E+5	1.0000E+0	6.5087E-7	2.0000E+0	6.8340E-10
1.9750E+5	1.0000E+0	6.5167E-7	2.0000E+0	6.8363E-10
1.9800E+5	1.0000E+0	6.4778E-7	2.0000E+0	6.8357E-10
1.9850E+5	1.0000E+0	6.4865E-7	2.0000E+0	6.8309E-10
1.9900E+5	1.0000E+0	6.4586E-7	2.0000E+0	6.8348E-10
1.9950E+5	1.0000E+0	6.4773E-7	2.0000E+0	6.8314E-10
2.0000E+5	1.0000E+0	6.4673E-7	2.0000E+0	6.8283E-10
2.0050E+5	1.0000E+0	6.4712E-7	2.0000E+0	6.8226E-10
2.0100E+5	1.0000E+0	6.4560E-7	2.0000E+0	6.8190E-10
2.0150E+5	1.0000E+0	6.4568E-7	2.0000E+0	6.8209E-10
2.0200E+5	1.0000E+0	6.4287E-7	2.0000E+0	4.2811E-10
2.0250E+5	1.0000E+0	6.4281E-7	2.0000E+0	1.8370E-11
2.0300E+5	1.0000E+0	6.4245E-7	2.0000E+0	8.1635E-12
2.0350E+5	1.0000E+0	6.4066E-7	2.0000E+0	7.5090E-12
2.0400E+5	1.0000E+0	6.3967E-7	2.0000E+0	7.4279E-12
2.0450E+5	1.0000E+0	6.3902E-7	2.0000E+0	7.3218E-12
2.0500E+5	1.0000E+0	6.4040E-7	2.0000E+0	7.4732E-12
2.0550E+5	1.0000E+0	6.3960E-7	2.0000E+0	7.3314E-12
2.0600E+5	1.0000E+0	6.3992E-7	2.0000E+0	7.2062E-12
2.0650E+5	1.0000E+0	6.3839E-7	2.0000E+0	7.2813E-12
2.0700E+5	1.0000E+0	6.3834E-7	2.0000E+0	7.4911E-12
2.0750E+5	1.0000E+0	6.3898E-7	2.0000E+0	7.4148E-12
2.0800E+5	1.0000E+0	6.3972E-7	2.0000E+0	7.5781E-12
2.0850E+5	1.0000E+0	6.4079E-7	2.0000E+0	7.4279E-12
2.0900E+5	1.0000E+0	6.4085E-7	2.0000E+0	7.6282E-12
2.0950E+5	1.0000E+0	6.4066E-7	2.0000E+0	7.1037E-12
2.1000E+5	1.0000E+0	6.4089E-7	2.0000E+0	7.3230E-12
2.1050E+5	1.0000E+0	6.3958E-7	2.0000E+0	7.3731E-12
2.1100E+5	1.0000E+0	6.4060E-7	2.0000E+0	7.4005E-12
2.1150E+5	1.0000E+0	6.3845E-7	2.0000E+0	7.2932E-12
2.1200E+5	1.0000E+0	6.4013E-7	2.0000E+0	4.1501E-10
2.1250E+5	1.0000E+0	6.3891E-7	2.0000E+0	6.8594E-10
2.1300E+5	1.0000E+0	6.3820E-7	2.0000E+0	6.9321E-10
2.1350E+5	1.0000E+0	6.3674E-7	2.0000E+0	6.9327E-10
2.1400E+5	1.0000E+0	6.3643E-7	2.0000E+0	6.9284E-10
2.1450E+5	1.0000E+0	6.3639E-7	2.0000E+0	6.9255E-10
2.1500E+5	1.0000E+0	6.3606E-7	2.0000E+0	6.9213E-10
2.1550E+5	1.0000E+0	6.3580E-7	2.0000E+0	6.9206E-10
2.1600E+5	1.0000E+0	6.3686E-7	2.0000E+0	6.9173E-10
2.1650E+5	1.0000E+0	6.3558E-7	2.0000E+0	6.9145E-10
2.1700E+5	1.0000E+0	6.3475E-7	2.0000E+0	6.9058E-10
2.1750E+5	1.0000E+0	6.3245E-7	2.0000E+0	6.9108E-10
2.1800E+5	1.0000E+0	6.3317E-7	2.0000E+0	6.9061E-10
2.1850E+5	1.0000E+0	6.3306E-7	2.0000E+0	6.9082E-10
2.1900E+5	1.0000E+0	6.3277E-7	2.0000E+0	6.9005E-10
2.1950E+5	1.0000E+0	6.3041E-7	2.0000E+0	6.8997E-10
2.2000E+5	1.0000E+0	6.3220E-7	2.0000E+0	6.8952E-10
2.2050E+5	1.0000E+0	6.3066E-7	2.0000E+0	6.8985E-10
2.2100E+5	1.0000E+0	6.2964E-7	2.0000E+0	6.8939E-10
2.2150E+5	1.0000E+0	6.2923E-7	2.0000E+0	6.8910E-10
2.2200E+5	1.0000E+0	6.2802E-7	2.0000E+0	5.0875E-10
2.2250E+5	1.0000E+0	6.2510E-7	2.0000E+0	2.0789E-11
2.2300E+5	1.0000E+0	6.2559E-7	2.0000E+0	8.4388E-12
2.2350E+5	1.0000E+0	6.2525E-7	2.0000E+0	7.8678E-12
2.2400E+5	1.0000E+0	6.2359E-7	2.0000E+0	7.1406E-12
2.2450E+5	1.0000E+0	6.2377E-7	2.0000E+0	7.3612E-12
2.2500E+5	1.0000E+0	6.2474E-7	2.0000E+0	7.2599E-12
2.2550E+5	1.0000E+0	6.2496E-7	2.0000E+0	7.5614E-12
2.2600E+5	1.0000E+0	6.2335E-7	2.0000E+0	7.2968E-12
2.2650E+5	1.0000E+0	6.2579E-7	2.0000E+0	7.3898E-12
2.2700E+5	1.0000E+0	6.2411E-7	2.0000E+0	7.4875E-12
2.2750E+5	1.0000E+0	6.2277E-7	2.0000E+0	7.5889E-12
2.2800E+5	1.0000E+0	6.2342E-7	2.0000E+0	7.4589E-12
2.2850E+5	1.0000E+0	6.2118E-7	2.0000E+0	7.6139E-12
2.2900E+5	1.0000E+0	6.2244E-7	2.0000E+0	7.7605E-12
2.2950E+5	1.0000E+0	6.2060E-7	2.0000E+0	7.4840E-12
2.3000E+5	1.0000E+0	6.2139E-7	2.0000E+0	7.7081E-12
2.3050E+5	1.0000E+0	6.2097E-7	2.0000E+0	7.5710E-12
2.3100E+5	1.0000E+0	6.2100E-7	2.0000E+0	7.5519E-12
2.3150E+5	1.0000E+0	6.1929E-7	2.0000E+0	7.7450E-12
2.3200E+5	1.0000E+0	6.2079E-7	2.0000E+0	3.1635E-10
2.3250E+5	1.0000E+0	6.2108E-7	2.0000E+0	6.8286E-10
2.3300E+5	1.0000E+0	6.2102E-7	2.0000E+0	6.8259E-10
2.3350E+5	1.0000E+0	6.2192E-7	2.0000E+0	6.8217E-10
2.3400E+5	1.0000E+0	6.2269E-7	2.0000E+0	6.8116E-10
2.3450E+5	1.0000E+0	6.2384E-7	2.0000E+0	6.8160E-10
2.3500E+5	1.0000E+0	6.2449E-7	2.0000E+0	6.8111E-10
2.3550E+5	1.0000E+0	6.2187E-7	2.0000E+0	6.8114E-10
2.3600E+5	1.0000E+0	6.2168E-7	2.0000E+0	6.8070E-10
2.3650E+5	1.0000E+0	6.2171E-7	2.0000E+0	6.8041E-10
2.3700E+5	1.0000E+0	6.2159E-7	2.0000E+0	6.7987E-10
2.3750E+5	1.0000E+0	6.2099E-7	2.0000E+0	6.7973E-10
2.3800E+5	1.0000E+0	6.2077E-7	2.0000E+0	6.7980E-10
2.3850E+5	1.0000E+0	6.1971E-7	2.0000E+0	6.7964E-10
2.3900E+5	1.0000E+0	6.1986E-7	2.0000E+0	6.7874E-10
2.3950E+5	1.0000E+0	6.1828E-7	2.0000E+0	6.7900E-10
2.4000E+5	1.0000E+0	6.1777E-7	2.0000E+0	6.7860E-10
2.4050E+5	1.0000E+0	6.1990E-7	2.0000E+0	6.7871E-10
2.4100E+5	1.0000E+0	6.1818E-7	2.0000E+0	6.7856E-10
2.4150E+5	1.0000E+0	6.1802E-7	2.0000E+0	6.7861E-10
2.4200E+5	1.0000E+0	6.1844E-7	2.0000E+0	5.7965E-10
2.4250E+5	1.0000E+0	6.1542E-7	2.0000E+0	2.0715E-11
2.4300E+5	1.0000E+0	6.1447E-7	2.0000E+0	8.8024E-12
2.4350E+5	1.0000E+0	6.1248E-7	2.0000E+0	7.4232E-12
2.4400E+5	1.0000E+0	6.1288E-7	2.0000E+0	7.4518E-12
2.4450E+5	1.0000E+0	6.1208E-7	2.0000E+0	7.5424E-12
2.4500E+5	1.0000E+0	6.1148E-7	2.0000E+0	7.3850E-12
2.4550E+5	1.0000E+0	6.1155E-7	2.0000E+0	7.4816E-12
2.4600E+5	1.0000E+0	6.1147E-7	2.0000E+0	7.4375E-12
2.4650E+5	1.0000E+0	6.1062E-7	2.0000E+0	7.6342E-12
2.4700E+5	1.0000E+0	6.0917E-7	2.0000E+0	7.4041E-12
2.4750E+5	1.0000E+0	6.1093E-7	2.0000E+0	7.4506E-12
2.4800E+5	1.0000E+0	6.1165E-7	2.0000E+0	7.3957E-12
2.4850E+5	1.0000E+0	6.1274E-7	2.0000E+0	7.5257E-12
2.4900E+5	1.0000E+0	6.1209E-7	2.0000E+0	7.6056E-12
2.4950E+5	1.0000E+0	6.0980E-7	2.0000E+0	7.5495E-12
2.5000E+5	1.0000E+0	6.1075E-7	2.0000E+0	7.2599E-12
2.5050E+5	1.0000E+0	6.1080E-7	2.0000E+0	7.6222E-12
2.5100E+5	1.0000E+0	6.1051E-7	2.0000E+0	7.6902E-12
2.5150E+5	1.0000E+0	6.1031E-7	2.0000E+0	7.2873E-12
2.5200E+5	1.0000E+0	6.1045E-7	2.0000E+0	2.1943E-10
2.5250E+5	1.0000E+0	6.1090E-7	2.0000E+0	6.8248E-10
2.5300E+5	1.0000E+0	6.1052E-7	2.0000E+0	6.8665E-10
2.5350E+5	1.0000E+0	6.1108E-7	2.0000E+0	6.8679E-10
2.5400E+5	1.0000E+0	6.1156E-7	2.0000E+0	6.8649E-10
2.5450E+5	1.0000E+0	6.1030E-7	2.0000E+0	6.8609E-10
2.5500E+5	1.0000E+0	6.1018E-7	2.0000E+0	6.8578E-10
2.5550E+5	1.0000E+0	6.0916E-7	2.0000E+0	6.8596E-10
2.5600E+5	1.0000E+0	6.0905E-7	2.0000E+0	6.8600E-10
2.5650E+5	1.0000E+0	6.0826E-7	2.0000E+0	6.8564E-10
2.5700E+5	1.0000E+0	6.0731E-7	2.0000E+0	6.8507E-10
2.5750E+5	1.0000E+0	6.0887E-7	2.0000E+0	6.8495E-10
2.5800E+5	1.0000E+0	6.0934E-7	2.0000E+0	6.8491E-10
2.5850E+5	1.0000E+0	6.0935E-7	2.0000E+0	6.8463E-10
2.5900E+5	1.0000E+0	6.0955E-7	2.0000E+0	6.8436E-10
2.5950E+5	1.0000E+0	6.1073E-7	2.0000E+0	6.8331E-10
2.6000E+5	1.0000E+0	6.0926E-7	2.0000E+0	6.8396E-10
2.6050E+5	1.0000E+0	6.0998E-7	2.0000E+0	6.8367E-10
2.6100E+5	1.0000E+0	6.0924E-7	2.0000E+0	6.8330E-10
2.6150E+5	1.0000E+0	6.0882E-7	2.0000E+0	6.8353E-10
2.6200E+5	1.0000E+0	6.0515E-7	2.0000E+0	6.4640E-10
2.6250E+5	1.0000E+0	6.0552E-7	2.0000E+0	2.4966E-11
2.6300E+5	1.0000E+0	6.0455E-7	2.0000E+0	9.1183E-12
2.6350E+5	1.0000E+0	6.0288E-7	2.0000E+0	7.6091E-12
2.6400E+5	1.0000E+0	6.0232E-7	2.0000E+0	7.3528E-12
2.6450E+5	1.0000E+0	6.0282E-7	2.0000E+0	7.3004E-12
2.6500E+5	1.0000E+0	6.0338E-7	2.0000E+0	7.3564E-12
2.6550E+5	1.0000E+0	6.0243E-7	2.0000E+0	7.4005E-12
2.6600E+5	1.0000E+0	6.0068E-7	2.0000E+0	7.4935E-12
2.6650E+5	1.0000E+0	6.0222E-7	2.0000E+0	7.4625E-12
2.6700E+5	1.0000E+0	6.0035E-7	2.0000E+0	7.4971E-12
2.6750E+5	1.0000E+0	6.0072E-7	2.0000E+0	7.5734E-12
2.6800E+5	1.0000E+0	6.0082E-7	2.0000E+0	7.7677E-12
2.6850E+5	1.0000E+0	6.0067E-7	2.0000E+0	7.6771E-12
2.6900E+5	1.0000E+0	6.0077E-7	2.0000E+0	7.6747E-12
2.6950E+5	1.0000E+0	6.0049E-7	2.0000E+0	7.4709E-12
2.7000E+5	1.0000E+0	6.0070E-7	2.0000E+0	7.7784E-12
2.7050E+5	1.0000E+0	6.0056E-7	2.0000E+0	7.6163E-12
2.7100E+5	1.0000E+0	6.0100E-7	2.0000E+0	7.7677E-12
2.7150E+5	1.0000E+0	6.0121E-7	2.0000E+0	7.6759E-12
2.7200E+5	1.0000E+0	6.0317E-7	2.0000E+0	7.4732E-12
2.7250E+5	1.0000E+0	6.0274E-7	2.0000E+0	7.5865E-12
2.7300E+5	1.0000E+0	6.0295E-7	2.0000E+0	7.6473E-12
2.7350E+5	1.0000E+0	6.0344E-7	2.0000E+0	7.5746E-12
2.7400E+5	1.0000E+0	6.0406E-7	2.0000E+0	7.8178E-12
2.7450E+5	1.0000E+0	6.0255E-7	2.0000E+0	7.9274E-12
2.7500E+5	1.0000E+0	6.0367E-7	2.0000E+0	7.9143E-12
2.7550E+5	1.0000E+0	6.0151E-7	2.0000E+0	7.5471E-12
2.7600E+5	1.0000E+0	6.0062E-7	2.0000E+0	7.7844E-12
2.7650E+5	1.0000E+0	6.0421E-7	2.0000E+0	7.8380E-12
2.7700E+5	1.0000E+0	6.0542E-7	2.0000E+0	7.7605E-12
2.7750E+5	1.0000E+0	6.0385E-7	2.0000E+0	7.6246E-12
2.7800E+5	1.0000E+0	6.0298E-7	2.0000E+0	7.6079E-12
2.7850E+5	1.0000E+0	6.0357E-7	2.0000E+0	7.6568E-12
2.7900E+5	1.0000E+0	6.0310E-7	2.0000E+0	7.6151E-12
2.7950E+5	1.0000E+0	6.0340E-7	2.0000E+0	7.5507E-12
2.8000E+5	1.0000E+0	6.0481E-7	2.0000E+0	7.7701E-12
2.8050E+5	1.0000E+0	6.0419E-7	2.0000E+0	7.6234E-12
2.8100E+5	1.0000E+0	6.0354E-7	2.0000E+0	7.6377E-12
2.8150E+5	1.0000E+0	6.0325E-7	2.0000E+0	8.0383E-12
2.8200E+5	1.0000E+0	6.0309E-7	2.0000E+0	7.8678E-12
2.8250E+5	1.0000E+0	6.0612E-7	2.0000E+0	7.5626E-12
